Time,Current,Magnetic Field 3,Magnetic Field 1,Magnetic Field 2
0,-0.005,-0.0004,0.0003,-0.0005
0.1,-0.005,-0.0007,0.0003,-0.0005
0.2,-0.006,-0.0005,0.0003,-0.0001
0.3,-0.006,-0.0002,0,-0.0003
0.4,-0.006,-0.0005,0.0001,-0.0002
0.5,-0.006,0.0001,0.0001,-0.0003
0.6,-0.006,-0.0001,0.0002,0.0001
0.7,-0.006,-0.0001,0.0004,-0.0001
0.8,-0.005,-0.0004,0.0009,0
0.9,-0.006,-0.0008,0.0007,0.0002
1,-0.006,-0.0007,0.0003,0.0004
1.1,-0.005,-0.0001,0,0.0005
1.2,-0.005,-0.0003,-0.0003,0.0005
1.3,-0.005,0.0002,-0.0001,-0.0001
1.4,-0.006,-0.0004,-0.0003,0
1.5,-0.005,0.0002,0.0004,0.0002
1.6,-0.006,-0.0002,-0.0001,0.0009
1.7,-0.004,0.0001,0.0001,0.0005
1.8,-0.006,-0.0003,0.0001,0.0002
1.9,-0.005,-0.0008,0.0003,-0.0006
2,-0.001,-0.001,0,-0.0004
2.1,0.002,-0.0011,0.0002,-0.0004
2.2,0.005,-0.001,-0.0002,-0.0004
2.3,0.006,-0.001,-0.0001,-0.0004
2.4,0.006,-0.0006,-0.0004,0
2.5,0.005,-0.001,-0.0003,-0.0007
2.6,0.006,-0.0013,-0.0003,-0.0011
2.7,0.006,-0.0008,-0.0002,-0.0002
2.8,0.007,-0.0008,-0.001,-0.0004
2.9,0.006,-0.0014,-0.0003,-0.0009
3,0.006,-0.0006,-0.0004,-0.0009
3.1,0.006,-0.0008,-0.0005,-0.0011
3.2,0.006,-0.001,-0.0005,-0.0008
3.3,0.008,-0.0008,-0.0006,-0.0008
3.4,0.007,-0.0006,-0.0003,-0.0003
3.5,0.008,-0.0007,-0.0006,-0.0002
3.6,0.01,-0.0005,-0.0005,-0.0006
3.7,0.011,-0.0007,-0.0009,-0.0006
3.8,0.012,-0.0008,-0.0014,-0.0007
3.9,0.014,-0.001,-0.0007,-0.0011
4,0.013,-0.001,-0.0007,-0.001
4.1,0.014,-0.0006,-0.0009,-0.0015
4.2,0.014,-0.0009,-0.0005,-0.0018
4.3,0.015,-0.0009,-0.0009,-0.0018
4.4,0.015,-0.0014,-0.001,-0.0011
4.5,0.014,-0.0013,-0.0011,-0.0012
4.6,0.015,-0.0013,-0.0011,-0.0013
4.7,0.016,-0.0015,-0.0008,-0.0009
4.8,0.015,-0.0015,-0.0006,-0.0007
4.9,0.014,-0.0012,-0.0008,-0.0015
5,0.016,-0.0011,-0.0006,-0.0011
5.1,0.015,-0.0013,-0.0005,-0.0015
5.2,0.016,-0.0013,-0.0005,-0.0011
5.3,0.02,-0.0016,-0.001,-0.0014
5.4,0.022,-0.0016,-0.0015,-0.0016
5.5,0.024,-0.0018,-0.0016,-0.0017
5.6,0.024,-0.0022,-0.0017,-0.0016
5.7,0.024,-0.0021,-0.0015,-0.0014
5.8,0.024,-0.0022,-0.0015,-0.0012
5.9,0.024,-0.0021,-0.0012,-0.0006
6,0.025,-0.0024,-0.0011,-0.0007
6.1,0.025,-0.002,-0.0012,-0.0009
6.2,0.025,-0.0019,-0.0012,-0.0009
6.3,0.025,-0.0018,-0.0011,-0.0013
6.4,0.025,-0.0015,-0.001,-0.0015
6.5,0.025,-0.0018,-0.001,-0.0011
6.6,0.027,-0.0018,-0.0008,-0.0017
6.7,0.031,-0.0022,-0.0015,-0.0017
6.8,0.032,-0.002,-0.002,-0.0021
6.9,0.032,-0.0022,-0.002,-0.0019
7,0.033,-0.0023,-0.0017,-0.0019
7.1,0.033,-0.0023,-0.0019,-0.0016
7.2,0.033,-0.0024,-0.002,-0.002
7.3,0.033,-0.0024,-0.0017,-0.0019
7.4,0.033,-0.0026,-0.0013,-0.0015
7.5,0.032,-0.0026,-0.0014,-0.0021
7.6,0.032,-0.0031,-0.0014,-0.0022
7.7,0.032,-0.0034,-0.0015,-0.0024
7.8,0.032,-0.0029,-0.0014,-0.0014
7.9,0.033,-0.0026,-0.0019,-0.0011
8,0.032,-0.0027,-0.0012,-0.0018
8.1,0.032,-0.0021,-0.001,-0.0017
8.2,0.035,-0.0026,-0.0014,-0.0024
8.3,0.039,-0.0033,-0.0014,-0.0024
8.4,0.04,-0.0028,-0.0017,-0.0026
8.5,0.042,-0.0031,-0.0016,-0.0027
8.6,0.042,-0.0029,-0.0016,-0.0024
8.7,0.044,-0.0031,-0.002,-0.0026
8.8,0.043,-0.0033,-0.0017,-0.0029
8.9,0.043,-0.0034,-0.0016,-0.0032
9,0.045,-0.0031,-0.0013,-0.0035
9.1,0.044,-0.0031,-0.0014,-0.0028
9.2,0.044,-0.0026,-0.002,-0.0029
9.3,0.045,-0.0028,-0.0018,-0.0027
9.4,0.043,-0.0031,-0.0014,-0.0027
9.5,0.045,-0.0035,-0.0017,-0.0026
9.6,0.048,-0.0035,-0.0017,-0.0026
9.7,0.051,-0.0034,-0.0022,-0.0021
9.8,0.052,-0.0036,-0.0019,-0.0027
9.9,0.052,-0.0034,-0.0023,-0.0034
10,0.052,-0.0033,-0.0018,-0.0034
10.1,0.052,-0.0034,-0.0021,-0.0036
10.2,0.053,-0.0037,-0.0022,-0.0029
10.3,0.052,-0.0033,-0.0023,-0.0028
10.4,0.052,-0.0036,-0.0024,-0.0033
10.5,0.052,-0.0034,-0.0021,-0.0031
10.6,0.052,-0.0035,-0.0017,-0.003
10.7,0.052,-0.0031,-0.0023,-0.0031
10.8,0.055,-0.0029,-0.0023,-0.0038
10.9,0.059,-0.0038,-0.0024,-0.0037
11,0.061,-0.0042,-0.0021,-0.0034
11.1,0.062,-0.0039,-0.0019,-0.0032
11.2,0.061,-0.0039,-0.002,-0.0032
11.3,0.062,-0.0042,-0.0023,-0.0032
11.4,0.062,-0.0042,-0.0024,-0.0033
11.5,0.062,-0.0038,-0.0023,-0.0031
11.6,0.063,-0.0038,-0.0026,-0.0029
11.7,0.062,-0.004,-0.0026,-0.0032
11.8,0.062,-0.0048,-0.0021,-0.0032
11.9,0.062,-0.0043,-0.002,-0.0035
12,0.063,-0.0041,-0.002,-0.0033
12.1,0.063,-0.0043,-0.0018,-0.0035
12.2,0.067,-0.0043,-0.0025,-0.0035
12.3,0.067,-0.0041,-0.003,-0.0034
12.4,0.07,-0.0044,-0.0032,-0.0032
12.5,0.071,-0.004,-0.0033,-0.0034
12.6,0.072,-0.0042,-0.0037,-0.0036
12.7,0.071,-0.0042,-0.0034,-0.0033
12.8,0.072,-0.0041,-0.0031,-0.003
12.9,0.071,-0.004,-0.0035,-0.0034
13,0.071,-0.004,-0.003,-0.0036
13.1,0.071,-0.0042,-0.0028,-0.0036
13.2,0.072,-0.0043,-0.003,-0.0036
13.3,0.071,-0.0046,-0.0031,-0.0031
13.4,0.07,-0.0045,-0.003,-0.0032
13.5,0.073,-0.0043,-0.0033,-0.0037
13.6,0.076,-0.0044,-0.0035,-0.0041
13.7,0.078,-0.0046,-0.0034,-0.0041
13.8,0.079,-0.0043,-0.003,-0.0039
13.9,0.078,-0.0041,-0.003,-0.004
14,0.079,-0.0042,-0.0026,-0.0036
14.1,0.079,-0.0043,-0.0027,-0.0037
14.2,0.08,-0.0042,-0.0028,-0.0039
14.3,0.08,-0.0048,-0.0031,-0.0038
14.4,0.079,-0.0043,-0.0033,-0.0037
14.5,0.079,-0.0043,-0.0041,-0.0041
14.6,0.079,-0.0041,-0.0035,-0.004
14.7,0.08,-0.0046,-0.0035,-0.0036
14.8,0.085,-0.0047,-0.0035,-0.0039
14.9,0.089,-0.0049,-0.0037,-0.0039
15,0.089,-0.0051,-0.0036,-0.0046
15.1,0.09,-0.0049,-0.0039,-0.0046
15.2,0.093,-0.0047,-0.0041,-0.0047
15.3,0.093,-0.005,-0.0036,-0.0048
15.4,0.093,-0.0048,-0.004,-0.0054
15.5,0.093,-0.0043,-0.0038,-0.0052
15.6,0.092,-0.0043,-0.0038,-0.0049
15.7,0.091,-0.0043,-0.0041,-0.0045
15.8,0.093,-0.0046,-0.0043,-0.0044
15.9,0.093,-0.0047,-0.0044,-0.0042
16,0.092,-0.0047,-0.0044,-0.0039
16.1,0.094,-0.0048,-0.0045,-0.0039
16.2,0.096,-0.0048,-0.0045,-0.0042
16.3,0.099,-0.0051,-0.0039,-0.0046
16.4,0.1,-0.0048,-0.0038,-0.0043
16.5,0.101,-0.0051,-0.0041,-0.0047
16.6,0.103,-0.0047,-0.0043,-0.0044
16.7,0.103,-0.0047,-0.0048,-0.0047
16.8,0.102,-0.0045,-0.0045,-0.0044
16.9,0.102,-0.0045,-0.0043,-0.0049
17,0.102,-0.005,-0.0044,-0.0047
17.1,0.103,-0.0049,-0.0042,-0.0045
17.2,0.103,-0.0051,-0.0045,-0.0048
17.3,0.103,-0.0049,-0.0047,-0.0053
17.4,0.102,-0.0053,-0.0045,-0.005
17.5,0.106,-0.005,-0.0053,-0.0053
17.6,0.109,-0.0053,-0.0053,-0.0051
17.7,0.11,-0.0055,-0.0048,-0.0052
17.8,0.11,-0.0055,-0.0057,-0.0054
17.9,0.11,-0.0055,-0.0053,-0.0056
18,0.111,-0.0054,-0.0054,-0.005
18.1,0.112,-0.0057,-0.0056,-0.0056
18.2,0.112,-0.0058,-0.0057,-0.0053
18.3,0.112,-0.0055,-0.0049,-0.0056
18.4,0.112,-0.0058,-0.005,-0.0055
18.5,0.112,-0.0059,-0.0057,-0.0054
18.6,0.112,-0.0057,-0.0056,-0.0052
18.7,0.111,-0.0058,-0.0053,-0.0053
18.8,0.114,-0.0058,-0.0055,-0.0053
18.9,0.115,-0.0055,-0.0052,-0.0053
19,0.118,-0.0056,-0.0055,-0.0057
19.1,0.118,-0.0059,-0.005,-0.0056
19.2,0.119,-0.0054,-0.0052,-0.0058
19.3,0.119,-0.0057,-0.0054,-0.0056
19.4,0.119,-0.0054,-0.0055,-0.0056
19.5,0.119,-0.0055,-0.0057,-0.0061
19.6,0.119,-0.0051,-0.0054,-0.0059
19.7,0.119,-0.0049,-0.0055,-0.006
19.8,0.119,-0.0052,-0.0056,-0.006
19.9,0.118,-0.0055,-0.0053,-0.0063
20,0.118,-0.0056,-0.0056,-0.0059
20.1,0.121,-0.0056,-0.0055,-0.0062
20.2,0.125,-0.0062,-0.0059,-0.0061
20.3,0.127,-0.006,-0.006,-0.0066
20.4,0.13,-0.0064,-0.0061,-0.0063
20.5,0.13,-0.0064,-0.0061,-0.0062
20.6,0.13,-0.0061,-0.0058,-0.0066
20.7,0.131,-0.006,-0.006,-0.0066
20.8,0.131,-0.0061,-0.0058,-0.0065
20.9,0.13,-0.0062,-0.0053,-0.0063
21,0.131,-0.0064,-0.0059,-0.0064
21.1,0.131,-0.0063,-0.0058,-0.0059
21.2,0.131,-0.0061,-0.0056,-0.0068
21.3,0.131,-0.0062,-0.0057,-0.0066
21.4,0.131,-0.0057,-0.006,-0.0059
21.5,0.131,-0.0061,-0.0065,-0.0058
21.6,0.132,-0.0063,-0.0061,-0.0065
21.7,0.135,-0.0066,-0.0062,-0.0067
21.8,0.137,-0.0069,-0.0065,-0.0068
21.9,0.138,-0.0071,-0.0065,-0.0069
22,0.14,-0.0075,-0.0065,-0.0068
22.1,0.139,-0.0065,-0.0068,-0.0067
22.2,0.14,-0.0065,-0.0074,-0.0071
22.3,0.14,-0.0064,-0.0067,-0.0072
22.4,0.14,-0.0067,-0.0069,-0.0067
22.5,0.14,-0.0068,-0.0068,-0.0065
22.6,0.139,-0.0072,-0.0066,-0.0074
22.7,0.139,-0.0069,-0.0068,-0.0072
22.8,0.138,-0.0071,-0.0068,-0.0067
22.9,0.142,-0.0069,-0.0064,-0.0066
23,0.146,-0.0069,-0.0069,-0.0078
23.1,0.147,-0.0069,-0.0067,-0.0073
23.2,0.148,-0.0069,-0.007,-0.0071
23.3,0.15,-0.0069,-0.0072,-0.0067
23.4,0.151,-0.0069,-0.0073,-0.0074
23.5,0.151,-0.0068,-0.0071,-0.0078
23.6,0.151,-0.0071,-0.0071,-0.0078
23.7,0.151,-0.0068,-0.0072,-0.0078
23.8,0.15,-0.0066,-0.0073,-0.0076
23.9,0.151,-0.0067,-0.0067,-0.0073
24,0.152,-0.0068,-0.0068,-0.0068
24.1,0.157,-0.0066,-0.0072,-0.0075
24.2,0.157,-0.0066,-0.0072,-0.0077
24.3,0.158,-0.0067,-0.0069,-0.0078
24.4,0.159,-0.0072,-0.0073,-0.0075
24.5,0.158,-0.0069,-0.0075,-0.008
24.6,0.158,-0.0073,-0.0076,-0.0077
24.7,0.159,-0.0072,-0.0071,-0.0075
24.8,0.159,-0.0069,-0.0073,-0.0079
24.9,0.158,-0.0069,-0.0074,-0.0077
25,0.158,-0.0071,-0.0071,-0.0078
25.1,0.158,-0.0069,-0.0071,-0.0081
25.2,0.158,-0.007,-0.0074,-0.008
25.3,0.161,-0.0074,-0.0074,-0.0082
25.4,0.163,-0.0071,-0.0073,-0.008
25.5,0.165,-0.0073,-0.0075,-0.0084
25.6,0.167,-0.0076,-0.0078,-0.0083
25.7,0.168,-0.0076,-0.008,-0.0082
25.8,0.169,-0.0075,-0.0085,-0.0081
25.9,0.169,-0.0077,-0.0081,-0.0088
26,0.168,-0.0077,-0.0079,-0.0088
26.1,0.169,-0.0073,-0.0082,-0.0085
26.2,0.169,-0.0077,-0.008,-0.0082
26.3,0.167,-0.0078,-0.0081,-0.0076
26.4,0.167,-0.0075,-0.0082,-0.0078
26.5,0.169,-0.0077,-0.0084,-0.0078
26.6,0.173,-0.0076,-0.0082,-0.0083
26.7,0.176,-0.0077,-0.0082,-0.0087
26.8,0.178,-0.0078,-0.0081,-0.0087
26.9,0.178,-0.0076,-0.0081,-0.0082
27,0.178,-0.0074,-0.008,-0.0081
27.1,0.178,-0.0073,-0.0081,-0.0086
27.2,0.178,-0.0076,-0.008,-0.009
27.3,0.178,-0.0073,-0.0079,-0.0089
27.4,0.178,-0.0075,-0.0078,-0.0082
27.5,0.178,-0.008,-0.008,-0.0081
27.6,0.179,-0.008,-0.0075,-0.0084
27.7,0.178,-0.0081,-0.0075,-0.0086
27.8,0.182,-0.0081,-0.008,-0.0085
27.9,0.185,-0.0079,-0.0081,-0.0085
28,0.187,-0.0082,-0.0081,-0.0087
28.1,0.188,-0.0081,-0.0083,-0.0091
28.2,0.189,-0.0084,-0.0085,-0.0087
28.3,0.189,-0.0081,-0.0085,-0.0089
28.4,0.189,-0.0082,-0.0084,-0.009
28.5,0.188,-0.0083,-0.0087,-0.009
28.6,0.189,-0.0082,-0.0084,-0.0092
28.7,0.188,-0.008,-0.0086,-0.0091
28.8,0.189,-0.0083,-0.009,-0.0095
28.9,0.188,-0.0088,-0.0085,-0.009
29,0.192,-0.0088,-0.0088,-0.0092
29.1,0.194,-0.0086,-0.0087,-0.0091
29.2,0.195,-0.0083,-0.0091,-0.0092
29.3,0.196,-0.0086,-0.009,-0.0089
29.4,0.197,-0.0089,-0.0092,-0.0087
29.5,0.196,-0.0088,-0.0092,-0.009
29.6,0.195,-0.0087,-0.0096,-0.0088
29.7,0.195,-0.0086,-0.0096,-0.009
29.8,0.195,-0.0089,-0.0092,-0.0094
29.9,0.195,-0.0083,-0.0094,-0.0093
30,0.197,-0.0084,-0.0088,-0.0098
30.1,0.201,-0.009,-0.0088,-0.0097
30.2,0.202,-0.0089,-0.0092,-0.0103
30.3,0.203,-0.0093,-0.009,-0.0099
30.4,0.203,-0.0096,-0.0093,-0.0105
30.5,0.203,-0.0097,-0.009,-0.0106
30.6,0.204,-0.0097,-0.0092,-0.0104
30.7,0.204,-0.0099,-0.0093,-0.0102
30.8,0.204,-0.0095,-0.0089,-0.01
30.9,0.204,-0.0095,-0.0085,-0.0109
31,0.204,-0.0094,-0.0093,-0.0109
31.1,0.204,-0.0093,-0.0094,-0.0109
31.2,0.204,-0.009,-0.0096,-0.0109
31.3,0.206,-0.0091,-0.0093,-0.0109
31.4,0.212,-0.0092,-0.0095,-0.011
31.5,0.213,-0.0093,-0.0096,-0.0108
31.6,0.214,-0.0096,-0.0097,-0.0108
31.7,0.214,-0.0094,-0.0101,-0.0113
31.8,0.214,-0.0096,-0.0102,-0.0109
31.9,0.215,-0.0097,-0.0098,-0.0109
32,0.215,-0.0093,-0.0096,-0.0113
32.1,0.215,-0.0098,-0.0095,-0.0113
32.2,0.215,-0.009,-0.0093,-0.0112
32.3,0.215,-0.0089,-0.0094,-0.0111
32.4,0.215,-0.0095,-0.0099,-0.0109
32.5,0.217,-0.0096,-0.0098,-0.011
32.6,0.219,-0.0102,-0.0101,-0.0117
32.7,0.223,-0.0102,-0.0103,-0.0115
32.8,0.226,-0.0101,-0.0102,-0.0107
32.9,0.226,-0.0102,-0.0107,-0.0111
33,0.224,-0.0105,-0.0109,-0.0111
33.1,0.225,-0.0105,-0.0111,-0.0116
33.2,0.226,-0.0101,-0.0103,-0.011
33.3,0.225,-0.0101,-0.0107,-0.0113
33.4,0.225,-0.0102,-0.0106,-0.0109
33.5,0.225,-0.0104,-0.0109,-0.0114
33.6,0.226,-0.0108,-0.0109,-0.0107
33.7,0.23,-0.0109,-0.0109,-0.0112
33.8,0.234,-0.0112,-0.0113,-0.0116
33.9,0.236,-0.0115,-0.0114,-0.0114
34,0.236,-0.0111,-0.0114,-0.0113
34.1,0.236,-0.0109,-0.0113,-0.011
34.2,0.237,-0.011,-0.0111,-0.0117
34.3,0.236,-0.0112,-0.0108,-0.0117
34.4,0.236,-0.0115,-0.0111,-0.0114
34.5,0.236,-0.0115,-0.0106,-0.0119
34.6,0.236,-0.0115,-0.0107,-0.0117
34.7,0.236,-0.0119,-0.0107,-0.0118
34.8,0.236,-0.0117,-0.0107,-0.0117
34.9,0.238,-0.0115,-0.0109,-0.012
35,0.241,-0.0113,-0.0113,-0.0114
35.1,0.243,-0.0117,-0.0116,-0.0114
35.2,0.244,-0.0113,-0.0115,-0.0117
35.3,0.244,-0.0109,-0.0119,-0.0118
35.4,0.243,-0.0112,-0.0114,-0.0116
35.5,0.245,-0.0115,-0.0116,-0.0115
35.6,0.245,-0.0111,-0.0112,-0.0113
35.7,0.244,-0.0111,-0.0111,-0.0113
35.8,0.244,-0.0112,-0.0113,-0.0115
35.9,0.245,-0.0112,-0.0116,-0.0115
36,0.245,-0.011,-0.0112,-0.0122
36.1,0.25,-0.0115,-0.0112,-0.0119
36.2,0.252,-0.0115,-0.0111,-0.0119
36.3,0.255,-0.0112,-0.0119,-0.0123
36.4,0.255,-0.0116,-0.0121,-0.012
36.5,0.256,-0.0116,-0.0116,-0.0118
36.6,0.257,-0.0114,-0.0119,-0.0117
36.7,0.256,-0.0115,-0.0122,-0.012
36.8,0.256,-0.0117,-0.0121,-0.0118
36.9,0.257,-0.0117,-0.012,-0.0113
37,0.257,-0.0118,-0.012,-0.0118
37.1,0.257,-0.0118,-0.0118,-0.0125
37.2,0.259,-0.0118,-0.0118,-0.012
37.3,0.262,-0.0121,-0.0119,-0.0122
37.4,0.262,-0.0123,-0.0123,-0.0115
37.5,0.263,-0.0122,-0.0122,-0.0115
37.6,0.263,-0.0123,-0.0119,-0.0118
37.7,0.263,-0.0126,-0.012,-0.0116
37.8,0.263,-0.0122,-0.0119,-0.0111
37.9,0.266,-0.0129,-0.012,-0.011
38,0.265,-0.0127,-0.0116,-0.0117
38.1,0.264,-0.0125,-0.0115,-0.0118
38.2,0.265,-0.0123,-0.0122,-0.0115
38.3,0.269,-0.0129,-0.0118,-0.012
38.4,0.273,-0.013,-0.0123,-0.0125
38.5,0.274,-0.0132,-0.0123,-0.0129
38.6,0.274,-0.0133,-0.0126,-0.0132
38.7,0.276,-0.0133,-0.0128,-0.0132
38.8,0.276,-0.0133,-0.0123,-0.0126
38.9,0.277,-0.0128,-0.0129,-0.0123
39,0.276,-0.0128,-0.0129,-0.0124
39.1,0.276,-0.0128,-0.0128,-0.0125
39.2,0.275,-0.0127,-0.0128,-0.0127
39.3,0.275,-0.0123,-0.0131,-0.0131
39.4,0.276,-0.0116,-0.0127,-0.0125
39.5,0.278,-0.0116,-0.0129,-0.0127
39.6,0.281,-0.0123,-0.0135,-0.0126
39.7,0.283,-0.0127,-0.013,-0.0129
39.8,0.283,-0.0134,-0.0133,-0.013
39.9,0.283,-0.0125,-0.013,-0.0128
40,0.284,-0.0127,-0.0138,-0.0131
40.1,0.283,-0.0129,-0.0136,-0.0127
40.2,0.284,-0.0125,-0.0139,-0.013
40.3,0.283,-0.0127,-0.014,-0.0131
40.4,0.284,-0.0128,-0.0139,-0.0127
40.5,0.284,-0.0134,-0.0142,-0.0129
40.6,0.284,-0.0132,-0.0138,-0.013
40.7,0.285,-0.0132,-0.0139,-0.0133
40.8,0.288,-0.0132,-0.0137,-0.0133
40.9,0.292,-0.0134,-0.0137,-0.0136
41,0.292,-0.0135,-0.0137,-0.0134
41.1,0.291,-0.0137,-0.0136,-0.0136
41.2,0.293,-0.0137,-0.0136,-0.0135
41.3,0.294,-0.0137,-0.0142,-0.0139
41.4,0.296,-0.0136,-0.0142,-0.0138
41.5,0.295,-0.0135,-0.0135,-0.0136
41.6,0.295,-0.0136,-0.0137,-0.0131
41.7,0.293,-0.0136,-0.0134,-0.0134
41.8,0.294,-0.0139,-0.0137,-0.0135
41.9,0.298,-0.0138,-0.0139,-0.0138
42,0.3,-0.0143,-0.0148,-0.0135
42.1,0.301,-0.0144,-0.015,-0.014
42.2,0.303,-0.0142,-0.0147,-0.014
42.3,0.303,-0.0144,-0.0145,-0.0145
42.4,0.303,-0.0146,-0.0137,-0.0141
42.5,0.303,-0.0146,-0.0137,-0.0142
42.6,0.303,-0.0144,-0.014,-0.0147
42.7,0.303,-0.0143,-0.0139,-0.015
42.8,0.303,-0.0144,-0.0143,-0.0149
42.9,0.303,-0.0142,-0.0146,-0.0145
43,0.303,-0.014,-0.0139,-0.0145
43.1,0.306,-0.0145,-0.0147,-0.015
43.2,0.308,-0.0143,-0.0147,-0.0147
43.3,0.311,-0.0143,-0.0148,-0.0151
43.4,0.313,-0.0141,-0.0147,-0.0148
43.5,0.313,-0.0142,-0.0146,-0.0146
43.6,0.313,-0.0147,-0.0147,-0.0151
43.7,0.313,-0.0145,-0.0145,-0.0149
43.8,0.313,-0.0146,-0.0147,-0.0149
43.9,0.314,-0.0151,-0.0145,-0.0148
44,0.314,-0.0146,-0.0148,-0.0145
44.1,0.314,-0.0148,-0.0149,-0.0146
44.2,0.314,-0.0148,-0.0143,-0.0145
44.3,0.318,-0.015,-0.0148,-0.0145
44.4,0.322,-0.0146,-0.0151,-0.0144
44.5,0.323,-0.0148,-0.0153,-0.0142
44.6,0.324,-0.0153,-0.0153,-0.0143
44.7,0.324,-0.0155,-0.0152,-0.0146
44.8,0.325,-0.0152,-0.0157,-0.0146
44.9,0.325,-0.015,-0.0153,-0.0147
45,0.325,-0.0153,-0.0153,-0.0146
45.1,0.324,-0.0155,-0.016,-0.015
45.2,0.325,-0.0154,-0.0156,-0.0151
45.3,0.326,-0.0153,-0.015,-0.0151
45.4,0.329,-0.0158,-0.0152,-0.0158
45.5,0.329,-0.0154,-0.0155,-0.0154
45.6,0.331,-0.015,-0.0161,-0.0154
45.7,0.331,-0.0153,-0.0162,-0.0153
45.8,0.331,-0.0152,-0.0162,-0.0156
45.9,0.331,-0.0152,-0.0164,-0.0155
46,0.33,-0.0151,-0.016,-0.015
46.1,0.331,-0.0151,-0.0164,-0.0149
46.2,0.331,-0.0154,-0.0166,-0.0149
46.3,0.332,-0.0158,-0.0163,-0.0152
46.4,0.335,-0.0158,-0.0164,-0.0151
46.5,0.34,-0.0163,-0.017,-0.0154
46.6,0.341,-0.0159,-0.0168,-0.0155
46.7,0.342,-0.016,-0.0166,-0.0156
46.8,0.341,-0.016,-0.0162,-0.0156
46.9,0.344,-0.0163,-0.0163,-0.0155
47,0.343,-0.0163,-0.0167,-0.0154
47.1,0.344,-0.0165,-0.0164,-0.0159
47.2,0.344,-0.0158,-0.0161,-0.0158
47.3,0.344,-0.0164,-0.0167,-0.0155
47.4,0.343,-0.0167,-0.0156,-0.0154
47.5,0.346,-0.0166,-0.016,-0.0156
47.6,0.348,-0.0166,-0.0166,-0.0154
47.7,0.348,-0.0166,-0.0165,-0.0151
47.8,0.349,-0.017,-0.0162,-0.0156
47.9,0.351,-0.017,-0.0164,-0.0155
48,0.352,-0.0164,-0.0163,-0.0157
48.1,0.351,-0.0168,-0.016,-0.0156
48.2,0.35,-0.0167,-0.016,-0.0158
48.3,0.35,-0.0167,-0.0156,-0.0157
48.4,0.351,-0.0169,-0.0155,-0.0161
48.5,0.351,-0.0167,-0.0161,-0.016
48.6,0.351,-0.0167,-0.016,-0.0163
48.7,0.35,-0.0168,-0.0161,-0.0163
48.8,0.354,-0.0169,-0.0163,-0.0161
48.9,0.358,-0.0169,-0.0161,-0.0161
49,0.361,-0.0165,-0.0163,-0.0165
49.1,0.362,-0.0168,-0.0167,-0.0166
49.2,0.363,-0.0165,-0.017,-0.0164
49.3,0.363,-0.0171,-0.0175,-0.0162
49.4,0.363,-0.017,-0.0175,-0.0163
49.5,0.364,-0.0169,-0.0171,-0.0159
49.6,0.364,-0.0168,-0.0173,-0.0156
49.7,0.363,-0.0169,-0.0175,-0.0158
49.8,0.364,-0.017,-0.0174,-0.0163
49.9,0.364,-0.0171,-0.0169,-0.0166
50,0.367,-0.0176,-0.0168,-0.0168
50.1,0.368,-0.0177,-0.0167,-0.0169
50.2,0.368,-0.0176,-0.0165,-0.0171
50.3,0.37,-0.0177,-0.0169,-0.0174
50.4,0.371,-0.0175,-0.0173,-0.0172
50.5,0.371,-0.0174,-0.0171,-0.017
50.6,0.37,-0.0175,-0.0171,-0.017
50.7,0.369,-0.0175,-0.0173,-0.017
50.8,0.371,-0.0177,-0.0171,-0.0171
50.9,0.37,-0.0178,-0.0169,-0.0171
51,0.37,-0.0181,-0.0167,-0.0173
51.1,0.37,-0.0182,-0.017,-0.0173
51.2,0.37,-0.0178,-0.0175,-0.0171
51.3,0.373,-0.0178,-0.0175,-0.0175
51.4,0.377,-0.0176,-0.017,-0.0178
51.5,0.379,-0.0183,-0.0168,-0.0178
51.6,0.381,-0.0184,-0.0169,-0.0179
51.7,0.382,-0.0183,-0.0173,-0.0182
51.8,0.382,-0.0182,-0.0174,-0.0178
51.9,0.382,-0.0178,-0.0174,-0.0174
52,0.382,-0.0179,-0.0175,-0.0174
52.1,0.381,-0.0179,-0.0174,-0.0173
52.2,0.382,-0.018,-0.018,-0.0176
52.3,0.383,-0.0181,-0.0176,-0.0178
52.4,0.386,-0.0186,-0.0183,-0.0175
52.5,0.388,-0.0184,-0.0178,-0.0172
52.6,0.389,-0.0181,-0.018,-0.0178
52.7,0.389,-0.0186,-0.0179,-0.0174
52.8,0.388,-0.0183,-0.0177,-0.0175
52.9,0.389,-0.0181,-0.0181,-0.0176
53,0.389,-0.0184,-0.018,-0.0179
53.1,0.391,-0.0183,-0.0182,-0.0181
53.2,0.395,-0.0182,-0.0183,-0.0182
53.3,0.398,-0.0187,-0.019,-0.0187
53.4,0.399,-0.0186,-0.0184,-0.0188
53.5,0.399,-0.0182,-0.0186,-0.0189
53.6,0.399,-0.0182,-0.0186,-0.0191
53.7,0.399,-0.0182,-0.0186,-0.0191
53.8,0.399,-0.0182,-0.0187,-0.0188
53.9,0.399,-0.0182,-0.0184,-0.0188
54,0.399,-0.0179,-0.0187,-0.0184
54.1,0.4,-0.0181,-0.0187,-0.0183
54.2,0.403,-0.0179,-0.0187,-0.0189
54.3,0.405,-0.0185,-0.0192,-0.0188
54.4,0.407,-0.0185,-0.019,-0.0189
54.5,0.408,-0.0187,-0.0194,-0.0187
54.6,0.408,-0.0186,-0.0195,-0.0194
54.7,0.409,-0.0187,-0.0193,-0.0192
54.8,0.408,-0.0192,-0.0192,-0.0195
54.9,0.408,-0.019,-0.0188,-0.0196
55,0.409,-0.0188,-0.019,-0.0192
55.1,0.411,-0.0192,-0.0187,-0.0192
55.2,0.414,-0.0194,-0.0195,-0.0199
55.3,0.415,-0.019,-0.0195,-0.0198
55.4,0.416,-0.0193,-0.0196,-0.0199
55.5,0.417,-0.0194,-0.0201,-0.0198
55.6,0.417,-0.0192,-0.0201,-0.0199
55.7,0.416,-0.0197,-0.0201,-0.0199
55.8,0.417,-0.0194,-0.02,-0.0196
55.9,0.417,-0.0197,-0.0198,-0.0194
56,0.417,-0.0196,-0.0197,-0.0194
56.1,0.418,-0.0193,-0.0198,-0.0196
56.2,0.424,-0.0192,-0.0202,-0.0199
56.3,0.426,-0.0194,-0.02,-0.02
56.4,0.429,-0.0196,-0.0196,-0.0197
56.5,0.43,-0.0196,-0.0196,-0.0203
56.6,0.43,-0.0197,-0.0195,-0.0199
56.7,0.43,-0.0195,-0.0196,-0.0204
56.8,0.43,-0.0198,-0.0194,-0.0202
56.9,0.43,-0.0201,-0.0194,-0.0205
57,0.43,-0.0198,-0.0202,-0.0203
57.1,0.43,-0.0199,-0.0199,-0.0197
57.2,0.43,-0.0195,-0.02,-0.0196
57.3,0.431,-0.0199,-0.0203,-0.02
57.4,0.435,-0.0202,-0.0207,-0.0202
57.5,0.437,-0.0202,-0.0199,-0.0206
57.6,0.439,-0.0199,-0.0201,-0.0196
57.7,0.44,-0.0202,-0.0197,-0.0203
57.8,0.44,-0.0199,-0.0204,-0.02
57.9,0.44,-0.0196,-0.0205,-0.0201
58,0.438,-0.0196,-0.0207,-0.0201
58.1,0.44,-0.0194,-0.0205,-0.0207
58.2,0.441,-0.0194,-0.0207,-0.02
58.3,0.44,-0.0194,-0.0207,-0.0202
58.4,0.443,-0.0199,-0.0205,-0.0203
58.5,0.446,-0.0201,-0.0205,-0.0207
58.6,0.448,-0.0197,-0.0215,-0.0209
58.7,0.45,-0.0203,-0.021,-0.0207
58.8,0.449,-0.02,-0.0211,-0.0207
58.9,0.449,-0.0196,-0.0209,-0.0204
59,0.45,-0.0196,-0.0212,-0.0206
59.1,0.449,-0.0203,-0.0214,-0.0207
59.2,0.45,-0.0202,-0.0209,-0.0209
59.3,0.449,-0.0201,-0.0212,-0.0206
59.4,0.45,-0.0203,-0.0216,-0.0207
59.5,0.451,-0.0204,-0.0217,-0.0207
59.6,0.452,-0.0201,-0.0214,-0.0204
59.7,0.452,-0.0201,-0.0213,-0.0205
59.8,0.455,-0.0211,-0.0215,-0.021
59.9,0.455,-0.0212,-0.0213,-0.0209
60,0.456,-0.0208,-0.0217,-0.0209
60.1,0.456,-0.0209,-0.0212,-0.0207
60.2,0.456,-0.021,-0.0209,-0.0205
60.3,0.455,-0.0213,-0.0215,-0.0204
60.4,0.456,-0.0209,-0.0216,-0.0205
60.5,0.456,-0.0207,-0.0218,-0.0208
60.6,0.455,-0.0206,-0.0217,-0.0209
60.7,0.459,-0.0208,-0.0215,-0.0206
60.8,0.463,-0.021,-0.022,-0.0207
60.9,0.466,-0.021,-0.022,-0.0211
61,0.467,-0.0212,-0.0217,-0.021
61.1,0.467,-0.0213,-0.0216,-0.0205
61.2,0.467,-0.0212,-0.0218,-0.0206
61.3,0.467,-0.021,-0.0219,-0.0212
61.4,0.467,-0.0206,-0.022,-0.0214
61.5,0.467,-0.0205,-0.0217,-0.0211
61.6,0.466,-0.0206,-0.0215,-0.0206
61.7,0.468,-0.0207,-0.022,-0.0207
61.8,0.47,-0.0209,-0.0217,-0.0205
61.9,0.472,-0.0212,-0.0223,-0.0214
62,0.473,-0.0217,-0.0222,-0.0211
62.1,0.473,-0.0213,-0.022,-0.021
62.2,0.474,-0.0212,-0.0223,-0.0216
62.3,0.474,-0.0215,-0.0221,-0.0216
62.4,0.475,-0.0216,-0.0226,-0.0212
62.5,0.473,-0.022,-0.0226,-0.0215
62.6,0.473,-0.0215,-0.0227,-0.0216
62.7,0.476,-0.0215,-0.0227,-0.0218
62.8,0.482,-0.0222,-0.0234,-0.0223
62.9,0.483,-0.0225,-0.0231,-0.0222
63,0.486,-0.0223,-0.0235,-0.0225
63.1,0.486,-0.0226,-0.0237,-0.0222
63.2,0.487,-0.0224,-0.0232,-0.0223
63.3,0.486,-0.0224,-0.023,-0.0221
63.4,0.486,-0.0224,-0.0232,-0.0222
63.5,0.486,-0.0226,-0.0229,-0.022
63.6,0.488,-0.0224,-0.0233,-0.022
63.7,0.491,-0.0224,-0.0235,-0.0224
63.8,0.494,-0.0221,-0.0238,-0.0225
63.9,0.494,-0.0225,-0.0236,-0.0226
64,0.494,-0.0224,-0.0233,-0.0228
64.1,0.494,-0.0225,-0.024,-0.0229
64.2,0.494,-0.0227,-0.0245,-0.0221
64.3,0.495,-0.0226,-0.024,-0.0227
64.4,0.494,-0.0225,-0.0241,-0.0225
64.5,0.495,-0.0228,-0.0238,-0.022
64.6,0.497,-0.0228,-0.0242,-0.0221
64.7,0.5,-0.0229,-0.0244,-0.0224
64.8,0.505,-0.0228,-0.0245,-0.0227
64.9,0.505,-0.0227,-0.0245,-0.0225
65,0.507,-0.0228,-0.0245,-0.0227
65.1,0.507,-0.0237,-0.0242,-0.0227
65.2,0.507,-0.0233,-0.0243,-0.0228
65.3,0.505,-0.0235,-0.0242,-0.0227
65.4,0.506,-0.0231,-0.0242,-0.0226
65.5,0.506,-0.0227,-0.0239,-0.0225
65.6,0.506,-0.0231,-0.0241,-0.0224
65.7,0.511,-0.0237,-0.0243,-0.0231
65.8,0.514,-0.0242,-0.0243,-0.0228
65.9,0.514,-0.0244,-0.0245,-0.0225
66,0.515,-0.0242,-0.0241,-0.023
66.1,0.515,-0.024,-0.0244,-0.0229
66.2,0.515,-0.0242,-0.0242,-0.023
66.3,0.514,-0.0235,-0.024,-0.0234
66.4,0.514,-0.0238,-0.0242,-0.0231
66.5,0.514,-0.0242,-0.0241,-0.0235
66.6,0.514,-0.0245,-0.0241,-0.0239
66.7,0.515,-0.024,-0.0242,-0.0237
66.8,0.517,-0.0243,-0.0244,-0.0239
66.9,0.522,-0.0249,-0.0248,-0.0237
67,0.525,-0.0245,-0.0248,-0.0233
67.1,0.525,-0.0249,-0.0252,-0.0232
67.2,0.525,-0.0249,-0.0249,-0.0234
67.3,0.525,-0.0246,-0.0251,-0.0232
67.4,0.525,-0.0246,-0.0248,-0.0232
67.5,0.525,-0.0244,-0.0243,-0.0235
67.6,0.526,-0.0244,-0.0244,-0.0234
67.7,0.526,-0.0242,-0.0245,-0.0233
67.8,0.529,-0.0249,-0.0253,-0.0233
67.9,0.538,-0.025,-0.0251,-0.0235
68,0.54,-0.0245,-0.0249,-0.024
68.1,0.542,-0.0249,-0.0252,-0.0246
68.2,0.542,-0.0248,-0.025,-0.0245
68.3,0.543,-0.0255,-0.025,-0.0242
68.4,0.542,-0.0251,-0.025,-0.0243
68.5,0.542,-0.0253,-0.0246,-0.0244
68.6,0.543,-0.0257,-0.0249,-0.0242
68.7,0.543,-0.0257,-0.0249,-0.0245
68.8,0.543,-0.0254,-0.0253,-0.0239
68.9,0.549,-0.0257,-0.0251,-0.0243
69,0.552,-0.0256,-0.0253,-0.0245
69.1,0.552,-0.0255,-0.026,-0.0251
69.2,0.552,-0.0255,-0.0258,-0.0247
69.3,0.552,-0.0259,-0.0256,-0.0249
69.4,0.552,-0.026,-0.0258,-0.0253
69.5,0.552,-0.026,-0.026,-0.0252
69.6,0.552,-0.0256,-0.0257,-0.025
69.7,0.553,-0.0252,-0.0254,-0.0246
69.8,0.556,-0.0258,-0.0252,-0.0244
69.9,0.558,-0.026,-0.0254,-0.0247
70,0.56,-0.026,-0.0255,-0.0247
70.1,0.561,-0.0255,-0.0255,-0.0248
70.2,0.56,-0.0252,-0.0258,-0.0249
70.3,0.562,-0.0256,-0.0261,-0.0247
70.4,0.562,-0.0261,-0.0264,-0.0247
70.5,0.564,-0.0259,-0.0262,-0.025
70.6,0.566,-0.026,-0.0262,-0.0249
70.7,0.568,-0.0263,-0.0259,-0.0254
70.8,0.571,-0.0261,-0.0264,-0.0254
70.9,0.572,-0.0263,-0.0267,-0.0258
71,0.572,-0.0262,-0.0268,-0.0255
71.1,0.572,-0.0263,-0.0265,-0.0252
71.2,0.573,-0.0266,-0.0267,-0.0263
71.3,0.573,-0.0266,-0.0271,-0.0263
71.4,0.572,-0.0263,-0.0266,-0.0259
71.5,0.573,-0.0261,-0.0265,-0.026
71.6,0.573,-0.0263,-0.026,-0.0268
71.7,0.578,-0.0265,-0.0264,-0.0265
71.8,0.58,-0.0268,-0.0267,-0.0271
71.9,0.581,-0.0267,-0.0272,-0.0273
72,0.582,-0.0268,-0.0274,-0.0271
72.1,0.582,-0.0268,-0.0273,-0.0268
72.2,0.583,-0.0272,-0.0273,-0.0267
72.3,0.583,-0.027,-0.0279,-0.0269
72.4,0.583,-0.0268,-0.027,-0.0269
72.5,0.583,-0.027,-0.0271,-0.0268
72.6,0.587,-0.0269,-0.0273,-0.027
72.7,0.591,-0.0279,-0.0274,-0.027
72.8,0.592,-0.028,-0.0276,-0.0271
72.9,0.593,-0.0276,-0.027,-0.027
73,0.594,-0.0275,-0.0276,-0.0275
73.1,0.594,-0.0279,-0.0272,-0.0274
73.2,0.594,-0.0276,-0.0276,-0.0271
73.3,0.593,-0.0273,-0.0275,-0.0269
73.4,0.593,-0.0271,-0.0271,-0.0264
73.5,0.593,-0.0274,-0.0272,-0.0268
73.6,0.594,-0.0272,-0.0273,-0.0266
73.7,0.595,-0.027,-0.0271,-0.0264
73.8,0.598,-0.0273,-0.0274,-0.0268
73.9,0.599,-0.0274,-0.0279,-0.0276
74,0.6,-0.0277,-0.0275,-0.0273
74.1,0.601,-0.0276,-0.0276,-0.0278
74.2,0.602,-0.0279,-0.0277,-0.0279
74.3,0.6,-0.0283,-0.0275,-0.0274
74.4,0.602,-0.0279,-0.0279,-0.0269
74.5,0.601,-0.0277,-0.0278,-0.0267
74.6,0.601,-0.0277,-0.0279,-0.0268
74.7,0.603,-0.028,-0.0282,-0.0274
74.8,0.608,-0.028,-0.0281,-0.0277
74.9,0.61,-0.028,-0.0281,-0.0279
75,0.61,-0.0286,-0.0278,-0.0278
75.1,0.611,-0.0284,-0.0277,-0.0281
75.2,0.612,-0.0289,-0.0278,-0.0281
75.3,0.611,-0.0281,-0.028,-0.0278
75.4,0.612,-0.0285,-0.0277,-0.0276
75.5,0.612,-0.0285,-0.0275,-0.0277
75.6,0.612,-0.0285,-0.0281,-0.0275
75.7,0.612,-0.0284,-0.0282,-0.0274
75.8,0.614,-0.028,-0.0281,-0.0277
75.9,0.617,-0.0285,-0.0291,-0.0276
76,0.619,-0.0286,-0.0286,-0.0282
76.1,0.62,-0.0285,-0.0287,-0.0279
76.2,0.62,-0.0288,-0.0287,-0.028
76.3,0.62,-0.0286,-0.0283,-0.0284
76.4,0.62,-0.0286,-0.0286,-0.0283
76.5,0.621,-0.0285,-0.0287,-0.0283
76.6,0.62,-0.0286,-0.0287,-0.0291
76.7,0.62,-0.028,-0.0286,-0.0286
76.8,0.624,-0.0287,-0.0286,-0.0293
76.9,0.627,-0.0289,-0.0288,-0.0291
77,0.629,-0.0288,-0.0295,-0.0287
77.1,0.63,-0.0287,-0.0295,-0.0287
77.2,0.631,-0.0282,-0.0295,-0.0287
77.3,0.63,-0.0286,-0.0291,-0.0289
77.4,0.63,-0.0286,-0.029,-0.0294
77.5,0.63,-0.0286,-0.0295,-0.0284
77.6,0.631,-0.0288,-0.0286,-0.028
77.7,0.631,-0.0288,-0.0286,-0.0285
77.8,0.634,-0.0285,-0.0292,-0.0288
77.9,0.636,-0.0293,-0.0296,-0.029
78,0.638,-0.0288,-0.0301,-0.0291
78.1,0.64,-0.0289,-0.0298,-0.0295
78.2,0.639,-0.0289,-0.0295,-0.0291
78.3,0.64,-0.029,-0.0292,-0.0288
78.4,0.641,-0.0289,-0.0294,-0.0286
78.5,0.641,-0.0288,-0.0289,-0.029
78.6,0.641,-0.029,-0.0295,-0.0291
78.7,0.641,-0.0293,-0.0295,-0.0292
78.8,0.641,-0.0292,-0.0294,-0.0293
78.9,0.646,-0.0292,-0.0298,-0.0295
79,0.648,-0.0295,-0.0296,-0.0296
79.1,0.65,-0.0297,-0.03,-0.0296
79.2,0.651,-0.0295,-0.0304,-0.0296
79.3,0.651,-0.0295,-0.0299,-0.0293
79.4,0.652,-0.0295,-0.0296,-0.0296
79.5,0.652,-0.0296,-0.0297,-0.03
79.6,0.652,-0.0301,-0.0298,-0.03
79.7,0.652,-0.0298,-0.0297,-0.0292
79.8,0.652,-0.0298,-0.0295,-0.0295
79.9,0.656,-0.0303,-0.0299,-0.0297
80,0.658,-0.0302,-0.0302,-0.0297
80.1,0.66,-0.0303,-0.0301,-0.0299
80.2,0.661,-0.0302,-0.0303,-0.0301
80.3,0.662,-0.0303,-0.0304,-0.0302
80.4,0.661,-0.0303,-0.0306,-0.0304
80.5,0.661,-0.0299,-0.0305,-0.0301
80.6,0.662,-0.0301,-0.0307,-0.0298
80.7,0.661,-0.0297,-0.0307,-0.0301
80.8,0.661,-0.0297,-0.0302,-0.03
80.9,0.664,-0.03,-0.0302,-0.0299
81,0.667,-0.0299,-0.0302,-0.0294
81.1,0.667,-0.03,-0.0305,-0.0295
81.2,0.668,-0.0301,-0.0306,-0.0303
81.3,0.669,-0.0302,-0.0305,-0.0304
81.4,0.669,-0.0306,-0.0303,-0.0305
81.5,0.668,-0.0307,-0.0304,-0.0297
81.6,0.67,-0.0302,-0.0306,-0.03
81.7,0.67,-0.0301,-0.0309,-0.0303
81.8,0.667,-0.0306,-0.0312,-0.0303
81.9,0.669,-0.0308,-0.0311,-0.0301
82,0.674,-0.0306,-0.0309,-0.0304
82.1,0.677,-0.031,-0.0312,-0.0307
82.2,0.679,-0.0312,-0.0316,-0.0304
82.3,0.679,-0.0308,-0.0316,-0.0305
82.4,0.68,-0.0312,-0.0319,-0.0305
82.5,0.681,-0.0311,-0.0319,-0.031
82.6,0.681,-0.031,-0.0315,-0.0308
82.7,0.68,-0.0306,-0.0313,-0.0307
82.8,0.68,-0.0306,-0.0315,-0.0306
82.9,0.682,-0.0304,-0.0314,-0.0309
83,0.684,-0.0306,-0.0318,-0.0312
83.1,0.687,-0.0311,-0.032,-0.0311
83.2,0.688,-0.0314,-0.032,-0.031
83.3,0.688,-0.0312,-0.0319,-0.0314
83.4,0.688,-0.0315,-0.0323,-0.0311
83.5,0.689,-0.0314,-0.0321,-0.0311
83.6,0.689,-0.0312,-0.0313,-0.0311
83.7,0.69,-0.0314,-0.0318,-0.031
83.8,0.69,-0.0315,-0.0321,-0.0311
83.9,0.69,-0.0315,-0.0317,-0.0313
84,0.694,-0.0318,-0.0319,-0.0314
84.1,0.696,-0.0312,-0.0324,-0.0312
84.2,0.697,-0.0317,-0.0319,-0.0315
84.3,0.699,-0.0319,-0.0322,-0.0308
84.4,0.698,-0.032,-0.0324,-0.0311
84.5,0.699,-0.0316,-0.0322,-0.032
84.6,0.699,-0.0314,-0.0317,-0.0315
84.7,0.699,-0.032,-0.0318,-0.0322
84.8,0.699,-0.0316,-0.0314,-0.0323
84.9,0.699,-0.0315,-0.0318,-0.0325
85,0.699,-0.0317,-0.0321,-0.0327
85.1,0.701,-0.0319,-0.032,-0.0326
85.2,0.704,-0.0318,-0.0319,-0.0325
85.3,0.704,-0.0322,-0.0317,-0.0331
85.4,0.706,-0.032,-0.0321,-0.0326
85.5,0.709,-0.0322,-0.0318,-0.0325
85.6,0.709,-0.0324,-0.032,-0.032
85.7,0.71,-0.0326,-0.0327,-0.0321
85.8,0.71,-0.0324,-0.0322,-0.0324
85.9,0.71,-0.0327,-0.032,-0.0324
86,0.71,-0.0321,-0.0326,-0.0327
86.1,0.709,-0.0323,-0.033,-0.0325
86.2,0.711,-0.0321,-0.0332,-0.0323
86.3,0.716,-0.0325,-0.033,-0.032
86.4,0.719,-0.0328,-0.0335,-0.032
86.5,0.72,-0.0328,-0.0328,-0.0326
86.6,0.72,-0.033,-0.0329,-0.0328
86.7,0.72,-0.0332,-0.0329,-0.033
86.8,0.72,-0.0329,-0.033,-0.0325
86.9,0.72,-0.0328,-0.0334,-0.0332
87,0.72,-0.0326,-0.0335,-0.033
87.1,0.72,-0.0328,-0.0333,-0.0327
87.2,0.72,-0.0329,-0.0332,-0.0332
87.3,0.723,-0.0332,-0.0335,-0.0339
87.4,0.726,-0.0336,-0.0336,-0.034
87.5,0.727,-0.0338,-0.0339,-0.033
87.6,0.727,-0.0333,-0.0341,-0.0334
87.7,0.727,-0.0331,-0.0338,-0.0338
87.8,0.726,-0.0338,-0.0337,-0.0336
87.9,0.727,-0.0337,-0.0334,-0.0338
88,0.728,-0.034,-0.0334,-0.0334
88.1,0.729,-0.0339,-0.0335,-0.0332
88.2,0.73,-0.0335,-0.0336,-0.0333
88.3,0.731,-0.0332,-0.0336,-0.0332
88.4,0.735,-0.0333,-0.0342,-0.0331
88.5,0.738,-0.0341,-0.0338,-0.0337
88.6,0.738,-0.0346,-0.0341,-0.0333
88.7,0.739,-0.0347,-0.0336,-0.0337
88.8,0.74,-0.0339,-0.0337,-0.0337
88.9,0.74,-0.0341,-0.0331,-0.0339
89,0.74,-0.0339,-0.0333,-0.0346
89.1,0.74,-0.034,-0.0329,-0.0345
89.2,0.739,-0.0342,-0.0332,-0.0341
89.3,0.739,-0.0339,-0.0331,-0.0339
89.4,0.739,-0.0338,-0.0333,-0.0341
89.5,0.741,-0.034,-0.0336,-0.0343
89.6,0.744,-0.0343,-0.0336,-0.0347
89.7,0.746,-0.0343,-0.0342,-0.0349
89.8,0.747,-0.0344,-0.034,-0.0349
89.9,0.747,-0.0348,-0.0338,-0.035
90,0.747,-0.0349,-0.0339,-0.0345
90.1,0.746,-0.0349,-0.0338,-0.0343
90.2,0.748,-0.0351,-0.0343,-0.0346
90.3,0.747,-0.0353,-0.0336,-0.0347
90.4,0.749,-0.0352,-0.0337,-0.0346
90.5,0.752,-0.035,-0.0336,-0.035
90.6,0.756,-0.0353,-0.0336,-0.035
90.7,0.757,-0.0354,-0.0343,-0.034
90.8,0.756,-0.0353,-0.0344,-0.0338
90.9,0.757,-0.0353,-0.0345,-0.0336
91,0.759,-0.0351,-0.0346,-0.0339
91.1,0.759,-0.0354,-0.0342,-0.0342
91.2,0.759,-0.0352,-0.0342,-0.0338
91.3,0.758,-0.035,-0.0335,-0.0341
91.4,0.758,-0.035,-0.0336,-0.0343
91.5,0.756,-0.0352,-0.0337,-0.0341
91.6,0.76,-0.0354,-0.034,-0.0342
91.7,0.765,-0.0357,-0.0342,-0.0344
91.8,0.767,-0.0356,-0.0345,-0.0344
91.9,0.767,-0.0357,-0.0351,-0.0349
92,0.767,-0.0359,-0.0343,-0.0352
92.1,0.767,-0.0354,-0.0343,-0.0359
92.2,0.767,-0.0351,-0.0344,-0.0359
92.3,0.768,-0.0353,-0.0342,-0.0355
92.4,0.768,-0.0352,-0.0343,-0.0353
92.5,0.768,-0.0354,-0.0345,-0.0354
92.6,0.768,-0.035,-0.0345,-0.0353
92.7,0.772,-0.0353,-0.0342,-0.0357
92.8,0.777,-0.0356,-0.0346,-0.0359
92.9,0.778,-0.0359,-0.0347,-0.0361
93,0.778,-0.0358,-0.0348,-0.0361
93.1,0.779,-0.0362,-0.035,-0.0361
93.2,0.778,-0.0361,-0.035,-0.0359
93.3,0.778,-0.0355,-0.0351,-0.0359
93.4,0.778,-0.0354,-0.0352,-0.0362
93.5,0.778,-0.0351,-0.0352,-0.0362
93.6,0.778,-0.035,-0.035,-0.0358
93.7,0.778,-0.0356,-0.0349,-0.0356
93.8,0.78,-0.0359,-0.0348,-0.0359
93.9,0.785,-0.0361,-0.0352,-0.0363
94,0.787,-0.0361,-0.035,-0.0365
94.1,0.788,-0.0356,-0.0353,-0.0362
94.2,0.788,-0.0351,-0.0354,-0.0362
94.3,0.788,-0.0352,-0.0354,-0.036
94.4,0.788,-0.0361,-0.0357,-0.0363
94.5,0.788,-0.0361,-0.0356,-0.0366
94.6,0.788,-0.0359,-0.036,-0.0364
94.7,0.788,-0.0359,-0.0356,-0.0367
94.8,0.788,-0.0361,-0.0358,-0.0367
94.9,0.789,-0.0362,-0.0361,-0.0368
95,0.793,-0.036,-0.0361,-0.0365
95.1,0.794,-0.0366,-0.0362,-0.0366
95.2,0.795,-0.0364,-0.0367,-0.0367
95.3,0.796,-0.0363,-0.0367,-0.0362
95.4,0.797,-0.0363,-0.0364,-0.0364
95.5,0.797,-0.0358,-0.0364,-0.036
95.6,0.799,-0.0357,-0.0361,-0.0365
95.7,0.797,-0.0368,-0.0367,-0.0364
95.8,0.801,-0.0366,-0.0369,-0.0365
95.9,0.804,-0.037,-0.0362,-0.0373
96,0.804,-0.0365,-0.0369,-0.0376
96.1,0.805,-0.0366,-0.037,-0.0375
96.2,0.807,-0.0369,-0.0371,-0.0371
96.3,0.805,-0.0369,-0.0367,-0.0366
96.4,0.806,-0.0366,-0.0366,-0.0367
96.5,0.807,-0.0367,-0.0368,-0.0364
96.6,0.807,-0.0371,-0.0363,-0.0363
96.7,0.806,-0.0369,-0.0367,-0.0364
96.8,0.806,-0.0373,-0.0364,-0.0365
96.9,0.809,-0.0375,-0.0365,-0.0367
97,0.813,-0.038,-0.0371,-0.0366
97.1,0.815,-0.0375,-0.0373,-0.0369
97.2,0.817,-0.0374,-0.037,-0.0369
97.3,0.816,-0.0371,-0.0372,-0.0374
97.4,0.815,-0.0373,-0.0371,-0.0376
97.5,0.817,-0.0373,-0.0371,-0.0378
97.6,0.817,-0.0372,-0.037,-0.0378
97.7,0.817,-0.0369,-0.0374,-0.0377
97.8,0.821,-0.0377,-0.0371,-0.0373
97.9,0.825,-0.0378,-0.0377,-0.0373
98,0.826,-0.0377,-0.0382,-0.0378
98.1,0.827,-0.0376,-0.0376,-0.0376
98.2,0.828,-0.0376,-0.0376,-0.0374
98.3,0.828,-0.0378,-0.0375,-0.0373
98.4,0.828,-0.0383,-0.0374,-0.0378
98.5,0.828,-0.0384,-0.0381,-0.0378
98.6,0.828,-0.0383,-0.0376,-0.0382
98.7,0.829,-0.0378,-0.0379,-0.0381
98.8,0.83,-0.038,-0.0381,-0.0381
98.9,0.832,-0.038,-0.0387,-0.0382
99,0.833,-0.0382,-0.0391,-0.0384
99.1,0.835,-0.038,-0.0395,-0.0385
99.2,0.836,-0.0377,-0.0393,-0.0389
99.3,0.836,-0.0383,-0.0383,-0.0388
99.4,0.836,-0.0385,-0.0383,-0.0382
99.5,0.836,-0.0383,-0.0381,-0.0387
99.6,0.836,-0.0386,-0.0382,-0.039
99.7,0.837,-0.0384,-0.0385,-0.0386
99.8,0.838,-0.0387,-0.0386,-0.0386
99.9,0.843,-0.0388,-0.0386,-0.0386
100,0.845,-0.0387,-0.0387,-0.039
100.1,0.846,-0.0387,-0.0382,-0.0397
100.2,0.847,-0.0387,-0.0387,-0.0395
100.3,0.847,-0.039,-0.0387,-0.0394
100.4,0.846,-0.0389,-0.0389,-0.039
100.5,0.847,-0.0388,-0.0386,-0.0393
100.6,0.846,-0.0388,-0.0388,-0.0392
100.7,0.847,-0.0389,-0.0389,-0.0389
100.8,0.849,-0.0391,-0.0389,-0.039
100.9,0.851,-0.0391,-0.039,-0.0391
101,0.854,-0.0392,-0.0385,-0.0397
101.1,0.854,-0.0394,-0.0389,-0.0398
101.2,0.855,-0.0395,-0.0395,-0.0393
101.3,0.854,-0.0394,-0.0393,-0.0391
101.4,0.855,-0.0392,-0.039,-0.0395
101.5,0.855,-0.0396,-0.0387,-0.0395
101.6,0.855,-0.0397,-0.0384,-0.0399
101.7,0.854,-0.0393,-0.0386,-0.0398
101.8,0.855,-0.0393,-0.0389,-0.0396
101.9,0.861,-0.0401,-0.0385,-0.0397
102,0.863,-0.0399,-0.0393,-0.04
102.1,0.865,-0.0396,-0.0393,-0.0402
102.2,0.865,-0.0397,-0.039,-0.0401
102.3,0.865,-0.0401,-0.0391,-0.0401
102.4,0.865,-0.0398,-0.0391,-0.0401
102.5,0.867,-0.0403,-0.039,-0.0402
102.6,0.867,-0.0401,-0.0394,-0.0397
102.7,0.867,-0.0398,-0.0396,-0.0395
102.8,0.867,-0.0401,-0.04,-0.0392
102.9,0.871,-0.0401,-0.0399,-0.0395
103,0.872,-0.0399,-0.0398,-0.0397
103.1,0.872,-0.0401,-0.0398,-0.0403
103.2,0.872,-0.0404,-0.0399,-0.0401
103.3,0.873,-0.0403,-0.0401,-0.0398
103.4,0.874,-0.0404,-0.0399,-0.04
103.5,0.874,-0.0407,-0.0397,-0.0397
103.6,0.874,-0.0407,-0.0399,-0.0402
103.7,0.873,-0.0404,-0.0398,-0.0408
103.8,0.873,-0.0402,-0.0395,-0.041
103.9,0.874,-0.0405,-0.0394,-0.0412
104,0.879,-0.0406,-0.0393,-0.0412
104.1,0.88,-0.0408,-0.0395,-0.0413
104.2,0.883,-0.0411,-0.0397,-0.0418
104.3,0.885,-0.0406,-0.0398,-0.0416
104.4,0.884,-0.0406,-0.0396,-0.0413
104.5,0.884,-0.0403,-0.0402,-0.0414
104.6,0.884,-0.0408,-0.0401,-0.0414
104.7,0.882,-0.0408,-0.0399,-0.0412
104.8,0.884,-0.0403,-0.0391,-0.0412
104.9,0.884,-0.0405,-0.0397,-0.0405
105,0.887,-0.0405,-0.0398,-0.041
105.1,0.89,-0.0403,-0.0406,-0.0405
105.2,0.893,-0.041,-0.0407,-0.0407
105.3,0.893,-0.0411,-0.0406,-0.0409
105.4,0.893,-0.0411,-0.0407,-0.0413
105.5,0.893,-0.041,-0.0408,-0.0414
105.6,0.894,-0.041,-0.0407,-0.0408
105.7,0.893,-0.041,-0.0411,-0.0412
105.8,0.893,-0.0409,-0.0413,-0.0411
105.9,0.894,-0.0409,-0.0415,-0.042
106,0.898,-0.0411,-0.0417,-0.0416
106.1,0.902,-0.0412,-0.0415,-0.0417
106.2,0.904,-0.0411,-0.0415,-0.0415
106.3,0.904,-0.0413,-0.0417,-0.0411
106.4,0.904,-0.0415,-0.0416,-0.0411
106.5,0.904,-0.0411,-0.0413,-0.0414
106.6,0.904,-0.0411,-0.0411,-0.0417
106.7,0.904,-0.041,-0.0412,-0.0412
106.8,0.904,-0.0413,-0.0413,-0.0409
106.9,0.904,-0.0414,-0.0412,-0.0408
107,0.905,-0.0413,-0.0419,-0.0409
107.1,0.909,-0.0414,-0.0417,-0.0413
107.2,0.912,-0.0417,-0.0419,-0.0412
107.3,0.912,-0.0419,-0.0418,-0.0414
107.4,0.913,-0.0418,-0.0419,-0.0415
107.5,0.913,-0.0418,-0.0423,-0.0419
107.6,0.913,-0.0417,-0.042,-0.0415
107.7,0.913,-0.0415,-0.0427,-0.0421
107.8,0.914,-0.0417,-0.0423,-0.0418
107.9,0.914,-0.042,-0.0427,-0.0418
108,0.914,-0.0418,-0.0424,-0.0413
108.1,0.916,-0.0424,-0.042,-0.0415
108.2,0.918,-0.0431,-0.042,-0.0419
108.3,0.92,-0.0428,-0.0419,-0.0416
108.4,0.92,-0.0424,-0.0418,-0.0412
108.5,0.92,-0.0427,-0.0424,-0.0412
108.6,0.921,-0.0428,-0.0424,-0.0415
108.7,0.922,-0.0426,-0.0421,-0.0412
108.8,0.923,-0.0424,-0.0422,-0.041
108.9,0.923,-0.0427,-0.0423,-0.0411
109,0.924,-0.0425,-0.0421,-0.0407
109.1,0.923,-0.0424,-0.0424,-0.0417
109.2,0.926,-0.0421,-0.0424,-0.0416
109.3,0.93,-0.0426,-0.043,-0.042
109.4,0.932,-0.0432,-0.0428,-0.0425
109.5,0.933,-0.0432,-0.0434,-0.0423
109.6,0.934,-0.0431,-0.0433,-0.0419
109.7,0.934,-0.043,-0.0432,-0.0421
109.8,0.934,-0.0429,-0.0429,-0.0426
109.9,0.933,-0.043,-0.0426,-0.0425
110,0.933,-0.043,-0.0429,-0.0419
110.1,0.934,-0.0427,-0.0427,-0.0419
110.2,0.934,-0.0429,-0.0428,-0.0423
110.3,0.936,-0.0428,-0.0428,-0.0421
110.4,0.938,-0.043,-0.0426,-0.0422
110.5,0.94,-0.0433,-0.0425,-0.0423
110.6,0.942,-0.0434,-0.0426,-0.0429
110.7,0.943,-0.0433,-0.0438,-0.0429
110.8,0.943,-0.0432,-0.044,-0.0429
110.9,0.942,-0.0436,-0.0431,-0.0428
111,0.943,-0.0435,-0.043,-0.043
111.1,0.943,-0.0433,-0.0427,-0.0427
111.2,0.944,-0.0432,-0.0434,-0.0431
111.3,0.945,-0.043,-0.0435,-0.0423
111.4,0.948,-0.0429,-0.0433,-0.0425
111.5,0.951,-0.0432,-0.0436,-0.0427
111.6,0.951,-0.0433,-0.0436,-0.0423
111.7,0.952,-0.0437,-0.044,-0.0423
111.8,0.952,-0.0437,-0.0443,-0.0429
111.9,0.951,-0.0438,-0.044,-0.0427
112,0.953,-0.0437,-0.0441,-0.0426
112.1,0.952,-0.0433,-0.0434,-0.0421
112.2,0.952,-0.0438,-0.0438,-0.0423
112.3,0.951,-0.0436,-0.0436,-0.0427
112.4,0.953,-0.0435,-0.0436,-0.0427
112.5,0.955,-0.0435,-0.0443,-0.0427
112.6,0.957,-0.0438,-0.0442,-0.0428
112.7,0.96,-0.0438,-0.0448,-0.0433
112.8,0.961,-0.044,-0.0446,-0.0429
112.9,0.962,-0.0444,-0.045,-0.0435
113,0.962,-0.0444,-0.0453,-0.0434
113.1,0.962,-0.0446,-0.0452,-0.0429
113.2,0.962,-0.0441,-0.0449,-0.043
113.3,0.962,-0.0442,-0.0448,-0.0434
113.4,0.963,-0.0439,-0.0448,-0.0435
113.5,0.962,-0.0442,-0.0449,-0.0435
113.6,0.968,-0.044,-0.0451,-0.0439
113.7,0.971,-0.044,-0.0452,-0.0436
113.8,0.971,-0.0443,-0.0449,-0.0442
113.9,0.971,-0.0442,-0.0452,-0.0436
114,0.972,-0.0445,-0.0448,-0.0433
114.1,0.972,-0.0446,-0.0448,-0.0434
114.2,0.972,-0.0445,-0.0453,-0.0435
114.3,0.972,-0.0446,-0.0457,-0.0442
114.4,0.972,-0.0448,-0.0453,-0.0441
114.5,0.972,-0.0443,-0.0454,-0.0437
114.6,0.973,-0.0445,-0.0453,-0.0445
114.7,0.977,-0.0449,-0.0453,-0.0447
114.8,0.979,-0.0447,-0.0456,-0.0446
114.9,0.979,-0.0448,-0.0458,-0.0451
115,0.981,-0.0449,-0.0455,-0.0451
115.1,0.982,-0.0444,-0.0453,-0.0447
115.2,0.981,-0.0451,-0.0453,-0.0448
115.3,0.981,-0.0446,-0.0456,-0.0452
115.4,0.983,-0.0446,-0.0455,-0.0449
115.5,0.981,-0.0445,-0.0451,-0.0446
115.6,0.981,-0.0451,-0.0453,-0.0448
115.7,0.987,-0.0451,-0.0453,-0.0444
115.8,0.991,-0.0452,-0.0457,-0.0453
115.9,0.991,-0.0454,-0.0458,-0.0454
116,0.992,-0.0455,-0.0456,-0.0449
116.1,0.992,-0.0452,-0.0459,-0.045
116.2,0.993,-0.0452,-0.0454,-0.045
116.3,0.993,-0.0453,-0.046,-0.0448
116.4,0.993,-0.0453,-0.046,-0.0453
116.5,0.993,-0.0453,-0.0455,-0.045
116.6,0.994,-0.0452,-0.0456,-0.0453
116.7,0.995,-0.0453,-0.0461,-0.0456
116.8,0.998,-0.0452,-0.0463,-0.0454
116.9,1.005,-0.0451,-0.0464,-0.0449
117,1.005,-0.0454,-0.0462,-0.0455
117.1,1.006,-0.0458,-0.046,-0.0455
117.2,1.008,-0.0451,-0.0462,-0.0456
117.3,1.007,-0.0455,-0.0462,-0.0454
117.4,1.007,-0.0459,-0.0462,-0.0454
117.5,1.008,-0.0458,-0.0465,-0.0458
117.6,1.008,-0.0457,-0.0463,-0.0456
117.7,1.008,-0.0458,-0.0468,-0.0457
117.8,1.009,-0.0458,-0.0464,-0.0454
117.9,1.014,-0.0459,-0.0468,-0.0458
118,1.018,-0.0459,-0.0462,-0.0455
118.1,1.019,-0.0459,-0.0466,-0.0456
118.2,1.019,-0.0457,-0.0464,-0.0449
118.3,1.019,-0.0461,-0.0461,-0.0455
118.4,1.019,-0.0462,-0.0463,-0.045
118.5,1.019,-0.0464,-0.0461,-0.0459
118.6,1.019,-0.0463,-0.0461,-0.0457
118.7,1.019,-0.0461,-0.0459,-0.0455
118.8,1.02,-0.0464,-0.0462,-0.0457
118.9,1.02,-0.0461,-0.046,-0.0458
119,1.022,-0.0465,-0.0464,-0.0459
119.1,1.027,-0.0463,-0.0467,-0.046
119.2,1.029,-0.0462,-0.047,-0.0461
119.3,1.03,-0.0461,-0.0467,-0.0462
119.4,1.03,-0.0465,-0.0465,-0.0461
119.5,1.03,-0.0467,-0.0468,-0.0464
119.6,1.031,-0.0468,-0.0465,-0.0464
119.7,1.031,-0.0463,-0.0466,-0.0462
119.8,1.031,-0.0462,-0.0473,-0.0464
119.9,1.03,-0.0467,-0.0469,-0.0464
120,1.031,-0.0464,-0.0468,-0.0467
120.1,1.035,-0.0464,-0.0471,-0.0466
120.2,1.038,-0.0466,-0.0473,-0.046
120.3,1.04,-0.0467,-0.0472,-0.0465
120.4,1.04,-0.0471,-0.0473,-0.0466
120.5,1.041,-0.0471,-0.0478,-0.0465
120.6,1.04,-0.0472,-0.0473,-0.0468
120.7,1.04,-0.047,-0.0475,-0.0468
120.8,1.041,-0.0467,-0.0473,-0.0466
120.9,1.04,-0.0469,-0.0473,-0.0468
121,1.041,-0.0469,-0.0472,-0.0469
121.1,1.041,-0.0469,-0.0475,-0.0473
121.2,1.045,-0.0471,-0.0479,-0.0467
121.3,1.046,-0.047,-0.0479,-0.0467
121.4,1.047,-0.047,-0.048,-0.0469
121.5,1.049,-0.047,-0.0475,-0.047
121.6,1.048,-0.0472,-0.0473,-0.0473
121.7,1.048,-0.0473,-0.0478,-0.0476
121.8,1.05,-0.047,-0.0479,-0.0474
121.9,1.048,-0.0474,-0.0477,-0.0471
122,1.048,-0.0472,-0.0478,-0.047
122.1,1.05,-0.0475,-0.0482,-0.0469
122.2,1.055,-0.0476,-0.0481,-0.0474
122.3,1.056,-0.0477,-0.0479,-0.0475
122.4,1.056,-0.0479,-0.0485,-0.0478
122.5,1.057,-0.048,-0.0488,-0.0473
122.6,1.058,-0.0483,-0.0484,-0.0471
122.7,1.059,-0.0482,-0.0487,-0.0475
122.8,1.061,-0.0487,-0.0488,-0.0473
122.9,1.061,-0.0485,-0.0486,-0.0473
123,1.06,-0.048,-0.049,-0.047
123.1,1.064,-0.0482,-0.0489,-0.047
123.2,1.067,-0.0483,-0.049,-0.0475
123.3,1.069,-0.0486,-0.049,-0.0477
123.4,1.072,-0.0484,-0.0492,-0.0478
123.5,1.072,-0.0489,-0.0491,-0.0478
123.6,1.072,-0.049,-0.0488,-0.0479
123.7,1.073,-0.0486,-0.0485,-0.0473
123.8,1.072,-0.0486,-0.0488,-0.0475
123.9,1.072,-0.0483,-0.0487,-0.0478
124,1.073,-0.0483,-0.0489,-0.0474
124.1,1.076,-0.0484,-0.0489,-0.0478
124.2,1.078,-0.0486,-0.0491,-0.0474
124.3,1.081,-0.0488,-0.0494,-0.0479
124.4,1.081,-0.0493,-0.0491,-0.0487
124.5,1.081,-0.0487,-0.0494,-0.0486
124.6,1.08,-0.0485,-0.0486,-0.0484
124.7,1.081,-0.0488,-0.0489,-0.0481
124.8,1.081,-0.0486,-0.0492,-0.0484
124.9,1.082,-0.0486,-0.0492,-0.0481
125,1.081,-0.0486,-0.049,-0.0478
125.1,1.083,-0.0488,-0.049,-0.0483
125.2,1.086,-0.049,-0.0487,-0.048
125.3,1.088,-0.0494,-0.0484,-0.0491
125.4,1.089,-0.0492,-0.0488,-0.0489
125.5,1.09,-0.0491,-0.0492,-0.0492
125.6,1.089,-0.049,-0.049,-0.0486
125.7,1.089,-0.0496,-0.0489,-0.0482
125.8,1.091,-0.0497,-0.0491,-0.0487
125.9,1.096,-0.0498,-0.0492,-0.0487
126,1.099,-0.0497,-0.0494,-0.0493
126.1,1.101,-0.0502,-0.0501,-0.0496
126.2,1.101,-0.0499,-0.0497,-0.0494
126.3,1.101,-0.0497,-0.05,-0.0491
126.4,1.102,-0.0497,-0.0498,-0.0491
126.5,1.104,-0.0497,-0.0497,-0.0498
126.6,1.104,-0.05,-0.0499,-0.0498
126.7,1.106,-0.0505,-0.0499,-0.0501
126.8,1.108,-0.0508,-0.0499,-0.0498
126.9,1.11,-0.051,-0.05,-0.0498
127,1.11,-0.051,-0.0502,-0.05
127.1,1.11,-0.0509,-0.0503,-0.0498
127.2,1.111,-0.0506,-0.0504,-0.0497
127.3,1.115,-0.0512,-0.051,-0.0506
127.4,1.118,-0.0514,-0.0508,-0.0505
127.5,1.12,-0.0512,-0.0507,-0.0513
127.6,1.121,-0.0511,-0.0506,-0.0509
127.7,1.121,-0.0511,-0.0505,-0.0513
127.8,1.123,-0.0513,-0.0509,-0.0509
127.9,1.126,-0.0516,-0.0511,-0.0512
128,1.127,-0.0517,-0.0512,-0.0515
128.1,1.13,-0.0517,-0.0512,-0.051
128.2,1.13,-0.0512,-0.0509,-0.0509
128.3,1.13,-0.0513,-0.0511,-0.0513
128.4,1.132,-0.0513,-0.0509,-0.0509
128.5,1.138,-0.0513,-0.0513,-0.0513
128.6,1.14,-0.0512,-0.0514,-0.0514
128.7,1.141,-0.0518,-0.0517,-0.0516
128.8,1.141,-0.0516,-0.0515,-0.0518
128.9,1.141,-0.0518,-0.0516,-0.052
129,1.142,-0.052,-0.0514,-0.052
129.1,1.146,-0.0524,-0.0512,-0.0521
129.2,1.147,-0.0521,-0.0517,-0.052
129.3,1.148,-0.0521,-0.0518,-0.0527
129.4,1.148,-0.0522,-0.0517,-0.0526
129.5,1.153,-0.052,-0.0518,-0.0522
129.6,1.156,-0.0523,-0.0526,-0.0521
129.7,1.16,-0.0525,-0.0526,-0.0521
129.8,1.16,-0.0531,-0.0524,-0.052
129.9,1.161,-0.0529,-0.0528,-0.0517
130,1.16,-0.0527,-0.0526,-0.0526
130.1,1.16,-0.053,-0.0525,-0.0525
130.2,1.162,-0.0527,-0.0527,-0.0531
130.3,1.164,-0.0529,-0.0526,-0.0527
130.4,1.167,-0.0533,-0.0525,-0.0532
130.5,1.167,-0.0534,-0.0528,-0.0537
130.6,1.168,-0.0532,-0.0529,-0.0535
130.7,1.168,-0.0535,-0.0525,-0.0532
130.8,1.169,-0.0528,-0.0525,-0.0531
130.9,1.168,-0.0534,-0.0525,-0.0529
131,1.17,-0.0535,-0.0524,-0.0529
131.1,1.174,-0.0539,-0.0525,-0.0536
131.2,1.178,-0.0535,-0.053,-0.0537
131.3,1.179,-0.0537,-0.0532,-0.0534
131.4,1.181,-0.0542,-0.0534,-0.0536
131.5,1.181,-0.054,-0.0529,-0.0533
131.6,1.182,-0.0538,-0.0529,-0.0536
131.7,1.185,-0.0542,-0.0527,-0.0537
131.8,1.188,-0.0547,-0.0529,-0.0539
131.9,1.194,-0.0545,-0.0531,-0.0533
132,1.199,-0.0542,-0.0531,-0.054
132.1,1.192,-0.0536,-0.0532,-0.0537
132.2,1.194,-0.0541,-0.0537,-0.0535
132.3,1.203,-0.054,-0.0536,-0.0536
132.4,1.209,-0.0541,-0.0536,-0.0536
132.5,1.211,-0.0545,-0.0538,-0.0539
132.6,1.213,-0.0541,-0.0534,-0.0543
132.7,1.214,-0.0544,-0.0537,-0.0545
132.8,1.214,-0.0544,-0.0542,-0.0545
132.9,1.215,-0.0547,-0.0541,-0.0541
133,1.214,-0.0545,-0.054,-0.0543
133.1,1.214,-0.0548,-0.0532,-0.0549
133.2,1.214,-0.0549,-0.0535,-0.0543
133.3,1.214,-0.0548,-0.0537,-0.0543
133.4,1.213,-0.0545,-0.0538,-0.0545
133.5,1.213,-0.0546,-0.0537,-0.0547
133.6,1.213,-0.0543,-0.0539,-0.0546
133.7,1.214,-0.0547,-0.0537,-0.0545
133.8,1.219,-0.0543,-0.0535,-0.0544
133.9,1.223,-0.0549,-0.0535,-0.0548
134,1.225,-0.055,-0.0537,-0.0551
134.1,1.224,-0.0554,-0.0544,-0.0554
134.2,1.224,-0.0551,-0.0547,-0.0555
134.3,1.225,-0.0547,-0.0542,-0.055
134.4,1.225,-0.055,-0.0542,-0.0547
134.5,1.225,-0.0548,-0.0541,-0.055
134.6,1.225,-0.0549,-0.0539,-0.0548
134.7,1.228,-0.0552,-0.0537,-0.0548
134.8,1.231,-0.0559,-0.054,-0.0547
134.9,1.233,-0.055,-0.0543,-0.0551
135,1.234,-0.0555,-0.0542,-0.0551
135.1,1.236,-0.0552,-0.0545,-0.0555
135.2,1.241,-0.0554,-0.055,-0.0552
135.3,1.243,-0.0557,-0.0552,-0.0552
135.4,1.244,-0.0557,-0.0552,-0.0553
135.5,1.245,-0.0558,-0.0545,-0.0553
135.6,1.245,-0.0558,-0.0548,-0.0556
135.7,1.247,-0.0561,-0.0554,-0.0556
135.8,1.25,-0.0559,-0.0556,-0.0554
135.9,1.25,-0.0553,-0.0555,-0.0556
136,1.251,-0.0559,-0.0554,-0.0561
136.1,1.252,-0.0559,-0.0552,-0.0561
136.2,1.252,-0.0558,-0.0552,-0.056
136.3,1.253,-0.0556,-0.0554,-0.056
136.4,1.253,-0.0556,-0.0557,-0.0557
136.5,1.258,-0.0559,-0.0561,-0.0558
136.6,1.261,-0.0561,-0.0564,-0.0556
136.7,1.264,-0.0562,-0.0561,-0.0557
136.8,1.263,-0.0562,-0.0559,-0.0558
136.9,1.266,-0.0561,-0.0565,-0.0564
137,1.268,-0.0559,-0.0563,-0.0568
137.1,1.271,-0.0566,-0.056,-0.0567
137.2,1.272,-0.0565,-0.0562,-0.0563
137.3,1.272,-0.0568,-0.0563,-0.0563
137.4,1.272,-0.057,-0.056,-0.0558
137.5,1.272,-0.0573,-0.0559,-0.056
137.6,1.276,-0.0573,-0.0566,-0.0564
137.7,1.282,-0.0575,-0.0566,-0.0564
137.8,1.284,-0.0569,-0.0569,-0.0564
137.9,1.283,-0.0571,-0.0568,-0.0569
138,1.283,-0.0571,-0.057,-0.0572
138.1,1.283,-0.057,-0.0577,-0.0573
138.2,1.287,-0.0573,-0.0576,-0.0577
138.3,1.289,-0.0575,-0.0575,-0.0572
138.4,1.291,-0.0577,-0.057,-0.0576
138.5,1.291,-0.0578,-0.0572,-0.0575
138.6,1.292,-0.0579,-0.0569,-0.0575
138.7,1.293,-0.0579,-0.0571,-0.0577
138.8,1.292,-0.0578,-0.0568,-0.0582
138.9,1.293,-0.0575,-0.0575,-0.0576
139,1.295,-0.0581,-0.0572,-0.0581
139.1,1.299,-0.0585,-0.0575,-0.0581
139.2,1.306,-0.0586,-0.0579,-0.0585
139.3,1.309,-0.0586,-0.0581,-0.059
139.4,1.309,-0.0589,-0.0577,-0.0589
139.5,1.31,-0.0587,-0.0584,-0.0589
139.6,1.311,-0.059,-0.0587,-0.0592
139.7,1.312,-0.0589,-0.0585,-0.059
139.8,1.312,-0.0587,-0.0582,-0.0594
139.9,1.313,-0.0588,-0.058,-0.0591
140,1.314,-0.0594,-0.0578,-0.059
140.1,1.318,-0.0589,-0.0578,-0.0591
140.2,1.32,-0.0592,-0.0584,-0.059
140.3,1.323,-0.0593,-0.0585,-0.0592
140.4,1.323,-0.0596,-0.0588,-0.0591
140.5,1.324,-0.0599,-0.0587,-0.0587
140.6,1.327,-0.0594,-0.0581,-0.0592
140.7,1.33,-0.0594,-0.0583,-0.0593
140.8,1.331,-0.0594,-0.0586,-0.0592
140.9,1.332,-0.0599,-0.0588,-0.0596
141,1.333,-0.0594,-0.0585,-0.0594
141.1,1.334,-0.0596,-0.0586,-0.0597
141.2,1.335,-0.0598,-0.0592,-0.0595
141.3,1.338,-0.0598,-0.0598,-0.0598
141.4,1.34,-0.0599,-0.0596,-0.0597
141.5,1.34,-0.0601,-0.0599,-0.0594
141.6,1.34,-0.0599,-0.0595,-0.0592
141.7,1.339,-0.06,-0.0593,-0.0596
141.8,1.34,-0.0599,-0.0599,-0.06
141.9,1.346,-0.0603,-0.0595,-0.0605
142,1.349,-0.0603,-0.0594,-0.0605
142.1,1.351,-0.0605,-0.0592,-0.0604
142.2,1.351,-0.0605,-0.0595,-0.0599
142.3,1.353,-0.061,-0.0593,-0.0605
142.4,1.355,-0.0613,-0.0593,-0.0602
142.5,1.357,-0.0612,-0.0597,-0.0603
142.6,1.358,-0.0612,-0.0597,-0.0608
142.7,1.359,-0.0614,-0.0595,-0.0606
142.8,1.359,-0.0614,-0.0598,-0.0609
142.9,1.36,-0.0614,-0.0601,-0.0605
143,1.361,-0.0612,-0.0598,-0.0601
143.1,1.365,-0.0604,-0.0599,-0.0605
143.2,1.368,-0.0612,-0.0601,-0.0608
143.3,1.371,-0.0613,-0.0604,-0.0611
143.4,1.372,-0.0616,-0.06,-0.0612
143.5,1.371,-0.0614,-0.0606,-0.0606
143.6,1.372,-0.0611,-0.0606,-0.0608
143.7,1.373,-0.0617,-0.0608,-0.0609
143.8,1.376,-0.0619,-0.0606,-0.061
143.9,1.377,-0.0618,-0.0605,-0.0613
144,1.377,-0.062,-0.0606,-0.061
144.1,1.378,-0.062,-0.0605,-0.0607
144.2,1.379,-0.0624,-0.0608,-0.0613
144.3,1.38,-0.0625,-0.0614,-0.0616
144.4,1.383,-0.0627,-0.0611,-0.0614
144.5,1.386,-0.0623,-0.061,-0.0619
144.6,1.39,-0.0623,-0.0612,-0.0622
144.7,1.391,-0.062,-0.0616,-0.0623
144.8,1.391,-0.0619,-0.0617,-0.0625
144.9,1.392,-0.062,-0.0613,-0.0622
145,1.394,-0.0624,-0.0608,-0.0626
145.1,1.397,-0.0625,-0.062,-0.0624
145.2,1.398,-0.0625,-0.0614,-0.0626
145.3,1.399,-0.0625,-0.0618,-0.0628
145.4,1.399,-0.0627,-0.0622,-0.063
145.5,1.399,-0.0628,-0.0621,-0.063
145.6,1.404,-0.0626,-0.0621,-0.0627
145.7,1.408,-0.063,-0.062,-0.0621
145.8,1.41,-0.063,-0.062,-0.0624
145.9,1.41,-0.0628,-0.0622,-0.0625
146,1.41,-0.063,-0.0624,-0.0621
146.1,1.411,-0.063,-0.0623,-0.0619
146.2,1.414,-0.0631,-0.0627,-0.0621
146.3,1.415,-0.0634,-0.0633,-0.0625
146.4,1.418,-0.0634,-0.0633,-0.0627
146.5,1.419,-0.0635,-0.0633,-0.0634
146.6,1.418,-0.0632,-0.0636,-0.0633
146.7,1.419,-0.0629,-0.0635,-0.0631
146.8,1.419,-0.0631,-0.0634,-0.0628
146.9,1.421,-0.0633,-0.0635,-0.0635
147,1.425,-0.0635,-0.0635,-0.0638
147.1,1.427,-0.0638,-0.0637,-0.0636
147.2,1.428,-0.064,-0.0639,-0.0636
147.3,1.43,-0.0639,-0.0644,-0.0638
147.4,1.429,-0.0638,-0.0642,-0.0639
147.5,1.431,-0.0641,-0.0646,-0.064
147.6,1.436,-0.0637,-0.0649,-0.0642
147.7,1.439,-0.0641,-0.0649,-0.0639
147.8,1.44,-0.0642,-0.0653,-0.0644
147.9,1.44,-0.0645,-0.0647,-0.0643
148,1.44,-0.0641,-0.0648,-0.064
148.1,1.44,-0.064,-0.0646,-0.0639
148.2,1.442,-0.0641,-0.065,-0.064
148.3,1.447,-0.0646,-0.0649,-0.0645
148.4,1.449,-0.0647,-0.0653,-0.0642
148.5,1.449,-0.0646,-0.0652,-0.0642
148.6,1.45,-0.0647,-0.0651,-0.0641
148.7,1.45,-0.065,-0.0649,-0.0646
148.8,1.451,-0.0648,-0.0652,-0.0648
148.9,1.453,-0.0646,-0.0649,-0.0647
149,1.456,-0.0648,-0.0653,-0.065
149.1,1.458,-0.0652,-0.0655,-0.0644
149.2,1.459,-0.0653,-0.0654,-0.0648
149.3,1.46,-0.0652,-0.0654,-0.065
149.4,1.461,-0.065,-0.0656,-0.0652
149.5,1.461,-0.0647,-0.0653,-0.0653
149.6,1.463,-0.0653,-0.0654,-0.0653
149.7,1.466,-0.0653,-0.0652,-0.0656
149.8,1.467,-0.0656,-0.0658,-0.0653
149.9,1.466,-0.066,-0.0657,-0.0652
150,1.468,-0.066,-0.066,-0.0652
150.1,1.469,-0.066,-0.0656,-0.0655
150.2,1.471,-0.0656,-0.0655,-0.0653
150.3,1.476,-0.0658,-0.0657,-0.0658
150.4,1.477,-0.0659,-0.066,-0.066
150.5,1.477,-0.0658,-0.0662,-0.0659
150.6,1.478,-0.0659,-0.0662,-0.0658
150.7,1.479,-0.066,-0.066,-0.0661
150.8,1.48,-0.0662,-0.0662,-0.0652
150.9,1.481,-0.0661,-0.0664,-0.0658
151,1.484,-0.0659,-0.0665,-0.066
151.1,1.485,-0.0657,-0.067,-0.066
151.2,1.489,-0.0662,-0.0673,-0.0663
151.3,1.49,-0.0663,-0.0672,-0.0664
151.4,1.49,-0.0659,-0.0669,-0.0665
151.5,1.491,-0.0663,-0.0668,-0.0667
151.6,1.493,-0.0667,-0.0672,-0.0664
151.7,1.496,-0.0667,-0.0673,-0.0666
151.8,1.498,-0.0665,-0.0674,-0.0674
151.9,1.498,-0.0667,-0.0673,-0.0672
152,1.5,-0.0672,-0.0672,-0.0674
152.1,1.5,-0.0668,-0.0673,-0.0673
152.2,1.503,-0.0669,-0.0672,-0.0676
152.3,1.504,-0.0674,-0.0676,-0.0674
152.4,1.505,-0.0676,-0.0672,-0.0673
152.5,1.507,-0.0677,-0.0673,-0.0672
152.6,1.507,-0.067,-0.0676,-0.0673
152.7,1.507,-0.0674,-0.0681,-0.0672
152.8,1.514,-0.0676,-0.0681,-0.0675
152.9,1.518,-0.0675,-0.0681,-0.0674
153,1.519,-0.0675,-0.0678,-0.0675
153.1,1.519,-0.0677,-0.0681,-0.0671
153.2,1.519,-0.068,-0.0685,-0.0669
153.3,1.52,-0.0682,-0.0682,-0.0668
153.4,1.521,-0.0683,-0.068,-0.0672
153.5,1.525,-0.0686,-0.0682,-0.0679
153.6,1.525,-0.0682,-0.0683,-0.0679
153.7,1.526,-0.0686,-0.0686,-0.0674
153.8,1.525,-0.0689,-0.0684,-0.0677
153.9,1.527,-0.0688,-0.0685,-0.0678
154,1.528,-0.0689,-0.0689,-0.068
154.1,1.535,-0.069,-0.0691,-0.0675
154.2,1.537,-0.069,-0.0689,-0.0676
154.3,1.537,-0.0689,-0.0693,-0.0684
154.4,1.539,-0.0688,-0.0691,-0.0688
154.5,1.541,-0.0688,-0.0693,-0.0689
154.6,1.544,-0.0694,-0.0693,-0.069
154.7,1.545,-0.0692,-0.0694,-0.0689
154.8,1.545,-0.0694,-0.0693,-0.069
154.9,1.546,-0.0693,-0.0688,-0.0686
155,1.547,-0.069,-0.0691,-0.0683
155.1,1.549,-0.0688,-0.0693,-0.0685
155.2,1.552,-0.0693,-0.0696,-0.0693
155.3,1.554,-0.0697,-0.0697,-0.0691
155.4,1.555,-0.0696,-0.0696,-0.0692
155.5,1.556,-0.0699,-0.0695,-0.069
155.6,1.557,-0.07,-0.0698,-0.0689
155.7,1.558,-0.0694,-0.07,-0.0688
155.8,1.559,-0.0698,-0.07,-0.0687
155.9,1.56,-0.0698,-0.0703,-0.0687
156,1.563,-0.0697,-0.0699,-0.069
156.1,1.565,-0.0699,-0.0695,-0.0696
156.2,1.565,-0.07,-0.0698,-0.0696
156.3,1.566,-0.0701,-0.0699,-0.0696
156.4,1.566,-0.0702,-0.0699,-0.0699
156.5,1.567,-0.0698,-0.0704,-0.0698
156.6,1.572,-0.0699,-0.0707,-0.0697
156.7,1.575,-0.07,-0.0707,-0.0702
156.8,1.576,-0.0697,-0.071,-0.0704
156.9,1.577,-0.0697,-0.0708,-0.0704
157,1.578,-0.0699,-0.0705,-0.0703
157.1,1.58,-0.0703,-0.0708,-0.0704
157.2,1.583,-0.0703,-0.0706,-0.0702
157.3,1.585,-0.0707,-0.0707,-0.0704
157.4,1.585,-0.0703,-0.0711,-0.0705
157.5,1.585,-0.0702,-0.0712,-0.0706
157.6,1.586,-0.0702,-0.0709,-0.0707
157.7,1.588,-0.0704,-0.0706,-0.0711
157.8,1.591,-0.0706,-0.0708,-0.0713
157.9,1.593,-0.0709,-0.0713,-0.0712
158,1.594,-0.071,-0.0712,-0.0711
158.1,1.594,-0.0714,-0.0717,-0.0716
158.2,1.595,-0.0711,-0.0715,-0.0717
158.3,1.597,-0.0712,-0.0717,-0.0713
158.4,1.603,-0.0708,-0.0718,-0.0714
158.5,1.604,-0.0711,-0.0721,-0.0716
158.6,1.606,-0.0712,-0.0725,-0.0716
158.7,1.608,-0.0717,-0.0723,-0.0719
158.8,1.608,-0.0716,-0.0722,-0.0724
158.9,1.608,-0.071,-0.0721,-0.0721
159,1.609,-0.0712,-0.0722,-0.0716
159.1,1.611,-0.0715,-0.0721,-0.0713
159.2,1.614,-0.0718,-0.0723,-0.0719
159.3,1.616,-0.0722,-0.0723,-0.0719
159.4,1.617,-0.0719,-0.0726,-0.072
159.5,1.62,-0.0718,-0.0731,-0.0721
159.6,1.624,-0.072,-0.0735,-0.0723
159.7,1.625,-0.0726,-0.0731,-0.0722
159.8,1.626,-0.0724,-0.0726,-0.0725
159.9,1.627,-0.0723,-0.0722,-0.0725
160,1.627,-0.0727,-0.0731,-0.0723
160.1,1.628,-0.0725,-0.0728,-0.0725
160.2,1.627,-0.0723,-0.0727,-0.0726
160.3,1.627,-0.0724,-0.0727,-0.0725
160.4,1.626,-0.0724,-0.073,-0.0729
160.5,1.626,-0.0723,-0.0733,-0.0728
160.6,1.627,-0.0731,-0.0731,-0.0728
160.7,1.627,-0.0725,-0.0729,-0.0721
160.8,1.627,-0.0725,-0.073,-0.0723
160.9,1.627,-0.0725,-0.073,-0.0729
161,1.627,-0.0723,-0.0733,-0.0726
161.1,1.627,-0.0722,-0.073,-0.0729
161.2,1.628,-0.0725,-0.0729,-0.0731
161.3,1.63,-0.0731,-0.0732,-0.0727
161.4,1.633,-0.0732,-0.0736,-0.073
161.5,1.634,-0.073,-0.0734,-0.0733
161.6,1.636,-0.0731,-0.0735,-0.0725
161.7,1.636,-0.0733,-0.0738,-0.0727
161.8,1.641,-0.0729,-0.0736,-0.0733
161.9,1.644,-0.073,-0.0738,-0.0739
162,1.645,-0.0734,-0.0743,-0.0736
162.1,1.645,-0.0737,-0.0744,-0.0733
162.2,1.645,-0.0736,-0.0742,-0.0726
162.3,1.645,-0.0735,-0.074,-0.0729
162.4,1.649,-0.0733,-0.0736,-0.0731
162.5,1.651,-0.0733,-0.0744,-0.0734
162.6,1.652,-0.0737,-0.074,-0.0731
162.7,1.653,-0.0735,-0.0741,-0.0737
162.8,1.653,-0.0737,-0.0746,-0.0732
162.9,1.653,-0.0739,-0.0745,-0.0729
163,1.659,-0.074,-0.0745,-0.0729
163.1,1.662,-0.0741,-0.0739,-0.0731
163.2,1.663,-0.0739,-0.0745,-0.0735
163.3,1.665,-0.0749,-0.0746,-0.0739
163.4,1.665,-0.0743,-0.0749,-0.0737
163.5,1.666,-0.074,-0.0752,-0.0738
163.6,1.67,-0.0742,-0.0749,-0.0744
163.7,1.672,-0.0746,-0.0752,-0.0751
163.8,1.672,-0.0749,-0.0756,-0.0748
163.9,1.673,-0.075,-0.0754,-0.0755
164,1.673,-0.0749,-0.0753,-0.0747
164.1,1.674,-0.075,-0.0754,-0.0754
164.2,1.679,-0.0749,-0.0754,-0.0761
164.3,1.684,-0.0753,-0.0753,-0.0759
164.4,1.686,-0.075,-0.0751,-0.0757
164.5,1.687,-0.0755,-0.0751,-0.0752
164.6,1.686,-0.0753,-0.075,-0.0752
164.7,1.685,-0.0753,-0.0755,-0.0761
164.8,1.685,-0.0755,-0.0754,-0.0761
164.9,1.685,-0.0758,-0.0758,-0.076
165,1.685,-0.0752,-0.0754,-0.0761
165.1,1.686,-0.0755,-0.0756,-0.0758
165.2,1.69,-0.0755,-0.0757,-0.0764
165.3,1.692,-0.0759,-0.0756,-0.0766
165.4,1.693,-0.0759,-0.0764,-0.0768
165.5,1.693,-0.0759,-0.0763,-0.0762
165.6,1.693,-0.0757,-0.0763,-0.0762
165.7,1.693,-0.0754,-0.0762,-0.0767
165.8,1.698,-0.0758,-0.0763,-0.0765
165.9,1.702,-0.0759,-0.0764,-0.0767
166,1.703,-0.0762,-0.0762,-0.0767
166.1,1.705,-0.0764,-0.0761,-0.0768
166.2,1.706,-0.0758,-0.0761,-0.0765
166.3,1.705,-0.0761,-0.0763,-0.0763
166.4,1.706,-0.0763,-0.0762,-0.0766
166.5,1.712,-0.0765,-0.0769,-0.0766
166.6,1.713,-0.0766,-0.0768,-0.077
166.7,1.714,-0.0772,-0.0768,-0.077
166.8,1.716,-0.077,-0.0773,-0.0773
166.9,1.719,-0.0772,-0.0773,-0.0773
167,1.72,-0.077,-0.0775,-0.0778
167.1,1.723,-0.0773,-0.0773,-0.0779
167.2,1.729,-0.0774,-0.0776,-0.078
167.3,1.73,-0.0777,-0.0781,-0.078
167.4,1.732,-0.0777,-0.0784,-0.0776
167.5,1.736,-0.0775,-0.0781,-0.0784
167.6,1.739,-0.0774,-0.0782,-0.0777
167.7,1.741,-0.0777,-0.0787,-0.0779
167.8,1.742,-0.0779,-0.0783,-0.0781
167.9,1.744,-0.0779,-0.0781,-0.0781
168,1.745,-0.078,-0.0783,-0.0781
168.1,1.745,-0.0779,-0.0788,-0.0782
168.2,1.749,-0.0781,-0.0783,-0.0783
168.3,1.751,-0.0784,-0.0781,-0.0786
168.4,1.752,-0.0783,-0.0786,-0.0788
168.5,1.752,-0.0784,-0.0787,-0.0791
168.6,1.753,-0.0788,-0.0787,-0.0788
168.7,1.754,-0.0785,-0.0792,-0.0789
168.8,1.756,-0.0792,-0.0789,-0.0795
168.9,1.76,-0.079,-0.079,-0.0792
169,1.761,-0.0792,-0.0793,-0.079
169.1,1.762,-0.079,-0.0789,-0.0789
169.2,1.762,-0.0789,-0.079,-0.0789
169.3,1.764,-0.0791,-0.0796,-0.0789
169.4,1.771,-0.0794,-0.0793,-0.0794
169.5,1.772,-0.0793,-0.0792,-0.0795
169.6,1.773,-0.0795,-0.0789,-0.0798
169.7,1.776,-0.0795,-0.0792,-0.0797
169.8,1.776,-0.0797,-0.0797,-0.0799
169.9,1.777,-0.0799,-0.0799,-0.0801
170,1.78,-0.0802,-0.0796,-0.0796
170.1,1.782,-0.0801,-0.0798,-0.0798
170.2,1.783,-0.0799,-0.0797,-0.0802
170.3,1.783,-0.0798,-0.0798,-0.0807
170.4,1.785,-0.0802,-0.0799,-0.0808
170.5,1.779,-0.0799,-0.0801,-0.0805
170.6,1.776,-0.0795,-0.0798,-0.0799
170.7,1.772,-0.0796,-0.0797,-0.0797
170.8,1.768,-0.0796,-0.0797,-0.0797
170.9,1.767,-0.0795,-0.0796,-0.0796
171,1.765,-0.0792,-0.0797,-0.0791
171.1,1.764,-0.0792,-0.0795,-0.0787
171.2,1.761,-0.0793,-0.0791,-0.079
171.3,1.758,-0.0788,-0.0791,-0.0787
171.4,1.758,-0.0785,-0.0786,-0.0786
171.5,1.756,-0.0788,-0.0786,-0.0788
171.6,1.756,-0.079,-0.0784,-0.0788
171.7,1.756,-0.0788,-0.0779,-0.0791
171.8,1.755,-0.0787,-0.0782,-0.0786
171.9,1.752,-0.0784,-0.078,-0.0781
172,1.75,-0.0782,-0.0782,-0.078
172.1,1.747,-0.0782,-0.0784,-0.0779
172.2,1.743,-0.0779,-0.0778,-0.0774
172.3,1.739,-0.0774,-0.0776,-0.0771
172.4,1.736,-0.0778,-0.0776,-0.078
172.5,1.732,-0.0775,-0.0779,-0.0782
172.6,1.73,-0.077,-0.0772,-0.0776
172.7,1.728,-0.0774,-0.0768,-0.0776
172.8,1.723,-0.0769,-0.0767,-0.0773
172.9,1.719,-0.0769,-0.0772,-0.0776
173,1.717,-0.0768,-0.0773,-0.0772
173.1,1.715,-0.0766,-0.0773,-0.0775
173.2,1.716,-0.0766,-0.0772,-0.0769
173.3,1.716,-0.0771,-0.077,-0.077
173.4,1.715,-0.0769,-0.0769,-0.0771
173.5,1.713,-0.0767,-0.0769,-0.0772
173.6,1.711,-0.0767,-0.0771,-0.077
173.7,1.708,-0.0767,-0.0771,-0.0771
173.8,1.703,-0.0758,-0.0763,-0.0764
173.9,1.7,-0.0761,-0.0761,-0.0766
174,1.699,-0.0764,-0.076,-0.0761
174.1,1.698,-0.0756,-0.076,-0.0757
174.2,1.696,-0.076,-0.0762,-0.0765
174.3,1.697,-0.0766,-0.0758,-0.0764
174.4,1.697,-0.0766,-0.0759,-0.0764
174.5,1.697,-0.0764,-0.0757,-0.0762
174.6,1.697,-0.0765,-0.0756,-0.0757
174.7,1.695,-0.0766,-0.0756,-0.0752
174.8,1.695,-0.0762,-0.076,-0.0758
174.9,1.697,-0.0764,-0.0759,-0.0758
175,1.697,-0.0764,-0.0757,-0.0758
175.1,1.696,-0.0767,-0.0757,-0.0758
175.2,1.695,-0.0763,-0.0753,-0.076
175.3,1.694,-0.076,-0.0754,-0.0762
175.4,1.695,-0.0761,-0.0755,-0.076
175.5,1.694,-0.0762,-0.0755,-0.0756
175.6,1.695,-0.0763,-0.0757,-0.0758
175.7,1.695,-0.0761,-0.076,-0.0762
175.8,1.694,-0.0766,-0.0763,-0.0762
175.9,1.696,-0.0765,-0.0765,-0.0762
176,1.696,-0.076,-0.0763,-0.0763
176.1,1.696,-0.0759,-0.0759,-0.0759
176.2,1.696,-0.0748,-0.0759,-0.0756
176.3,1.696,-0.0747,-0.076,-0.0761
176.4,1.695,-0.075,-0.0764,-0.0756
176.5,1.696,-0.0756,-0.0759,-0.0749
176.6,1.691,-0.0754,-0.0757,-0.0751
176.7,1.654,-0.0737,-0.0742,-0.0732
176.8,1.627,-0.0723,-0.0729,-0.0719
176.9,1.614,-0.0719,-0.0727,-0.0718
177,1.608,-0.0714,-0.0722,-0.0713
177.1,1.605,-0.0716,-0.072,-0.0713
177.2,1.603,-0.0715,-0.0719,-0.0705
177.3,1.602,-0.071,-0.0717,-0.0702
177.4,1.601,-0.0708,-0.0716,-0.0699
177.5,1.601,-0.0705,-0.0716,-0.0702
177.6,1.601,-0.0708,-0.0715,-0.0706
177.7,1.601,-0.0706,-0.072,-0.071
177.8,1.601,-0.0712,-0.0718,-0.0709
177.9,1.601,-0.071,-0.0723,-0.0709
178,1.6,-0.0711,-0.0722,-0.0711
178.1,1.6,-0.0711,-0.0718,-0.0712
178.2,1.582,-0.0703,-0.0706,-0.0702
178.3,1.545,-0.0687,-0.0691,-0.0687
178.4,1.525,-0.0679,-0.0683,-0.0682
178.5,1.513,-0.0672,-0.0679,-0.0672
178.6,1.507,-0.0668,-0.0679,-0.0667
178.7,1.503,-0.067,-0.0673,-0.0667
178.8,1.503,-0.0672,-0.0672,-0.0663
178.9,1.503,-0.067,-0.0672,-0.0661
179,1.503,-0.0669,-0.0676,-0.0667
179.1,1.502,-0.0672,-0.0672,-0.0665
179.2,1.503,-0.067,-0.0671,-0.0671
179.3,1.502,-0.0668,-0.0664,-0.067
179.4,1.503,-0.067,-0.0669,-0.0669
179.5,1.503,-0.0665,-0.0668,-0.0672
179.6,1.503,-0.0664,-0.067,-0.0671
179.7,1.503,-0.0666,-0.067,-0.0665
179.8,1.503,-0.0664,-0.0669,-0.0667
179.9,1.503,-0.066,-0.0671,-0.0667
180,1.503,-0.0662,-0.0669,-0.0663
180.1,1.503,-0.0663,-0.0672,-0.0668
180.2,1.503,-0.0661,-0.067,-0.0667
180.3,1.503,-0.0662,-0.0667,-0.0663
180.4,1.499,-0.0658,-0.0666,-0.0662
180.5,1.462,-0.0647,-0.0646,-0.0651
180.6,1.435,-0.0635,-0.0638,-0.064
180.7,1.418,-0.0629,-0.0634,-0.0632
180.8,1.412,-0.0625,-0.0627,-0.0629
180.9,1.409,-0.0626,-0.0625,-0.0631
181,1.406,-0.0625,-0.0627,-0.0628
181.1,1.405,-0.0621,-0.0621,-0.0624
181.2,1.404,-0.0624,-0.0623,-0.063
181.3,1.402,-0.0619,-0.0623,-0.0628
181.4,1.403,-0.0623,-0.0626,-0.0626
181.5,1.402,-0.0626,-0.0622,-0.0629
181.6,1.401,-0.0625,-0.0622,-0.0624
181.7,1.401,-0.0622,-0.0621,-0.0628
181.8,1.402,-0.0624,-0.0622,-0.063
181.9,1.401,-0.0627,-0.0622,-0.0626
182,1.401,-0.0624,-0.0626,-0.0626
182.1,1.402,-0.063,-0.0623,-0.0623
182.2,1.402,-0.0623,-0.0623,-0.0621
182.3,1.402,-0.0626,-0.0622,-0.0627
182.4,1.401,-0.0621,-0.0623,-0.0632
182.5,1.401,-0.062,-0.0624,-0.0626
182.6,1.401,-0.0614,-0.0619,-0.0619
182.7,1.375,-0.0606,-0.0602,-0.0612
182.8,1.341,-0.0593,-0.0592,-0.0601
182.9,1.323,-0.0583,-0.0583,-0.0595
183,1.314,-0.0577,-0.0577,-0.0588
183.1,1.31,-0.0574,-0.0583,-0.0589
183.2,1.308,-0.0577,-0.0579,-0.0587
183.3,1.308,-0.0578,-0.0578,-0.0587
183.4,1.308,-0.0579,-0.0582,-0.0585
183.5,1.307,-0.0583,-0.0584,-0.0582
183.6,1.306,-0.0581,-0.0583,-0.0581
183.7,1.306,-0.058,-0.0581,-0.058
183.8,1.307,-0.0576,-0.0582,-0.0578
183.9,1.306,-0.0577,-0.0579,-0.0581
184,1.306,-0.0578,-0.058,-0.0585
184.1,1.283,-0.0572,-0.0573,-0.0575
184.2,1.248,-0.0558,-0.0554,-0.056
184.3,1.228,-0.0547,-0.055,-0.0551
184.4,1.218,-0.0546,-0.0545,-0.0547
184.5,1.213,-0.0541,-0.0542,-0.0542
184.6,1.21,-0.054,-0.0545,-0.0543
184.7,1.208,-0.0539,-0.0541,-0.054
184.8,1.205,-0.054,-0.0544,-0.0544
184.9,1.205,-0.0539,-0.0543,-0.0545
185,1.204,-0.0541,-0.054,-0.0547
185.1,1.204,-0.0541,-0.0542,-0.0547
185.2,1.203,-0.0537,-0.0542,-0.0547
185.3,1.201,-0.0536,-0.0547,-0.0544
185.4,1.2,-0.0537,-0.0546,-0.0545
185.5,1.194,-0.0532,-0.0541,-0.0541
185.6,1.152,-0.0523,-0.053,-0.0529
185.7,1.124,-0.0508,-0.0516,-0.0511
185.8,1.109,-0.05,-0.0505,-0.0509
185.9,1.103,-0.0497,-0.0502,-0.0505
186,1.1,-0.0493,-0.0499,-0.0501
186.1,1.097,-0.0493,-0.0498,-0.0501
186.2,1.095,-0.0492,-0.0498,-0.0492
186.3,1.094,-0.0492,-0.0498,-0.049
186.4,1.092,-0.0496,-0.0495,-0.0488
186.5,1.093,-0.0492,-0.0493,-0.0486
186.6,1.092,-0.049,-0.0495,-0.0489
186.7,1.077,-0.0481,-0.0489,-0.0481
186.8,1.04,-0.0462,-0.0471,-0.0464
186.9,1.018,-0.0454,-0.0462,-0.046
187,1.006,-0.0448,-0.0458,-0.0453
187.1,1,-0.0445,-0.0454,-0.0446
187.2,0.999,-0.0441,-0.0447,-0.0448
187.3,0.998,-0.0442,-0.0453,-0.0449
187.4,0.997,-0.0446,-0.045,-0.045
187.5,0.996,-0.0438,-0.0444,-0.045
187.6,0.996,-0.0443,-0.0449,-0.0451
187.7,0.996,-0.0443,-0.0447,-0.0455
187.8,0.996,-0.0447,-0.0447,-0.0447
187.9,0.995,-0.0443,-0.0447,-0.0446
188,0.995,-0.0446,-0.0444,-0.0445
188.1,0.996,-0.0442,-0.0445,-0.0445
188.2,0.994,-0.0442,-0.0446,-0.0446
188.3,0.994,-0.0443,-0.0446,-0.0442
188.4,0.962,-0.043,-0.043,-0.0428
188.5,0.93,-0.0416,-0.0418,-0.041
188.6,0.913,-0.0411,-0.0415,-0.0403
188.7,0.906,-0.0409,-0.0409,-0.04
188.8,0.9,-0.0407,-0.0408,-0.0398
188.9,0.896,-0.0403,-0.0406,-0.0393
189,0.895,-0.04,-0.0403,-0.0397
189.1,0.894,-0.0402,-0.0398,-0.0398
189.2,0.894,-0.0405,-0.0401,-0.0394
189.3,0.894,-0.0402,-0.0402,-0.0395
189.4,0.893,-0.0401,-0.0405,-0.0399
189.5,0.894,-0.0401,-0.0402,-0.0397
189.6,0.893,-0.04,-0.0401,-0.0397
189.7,0.893,-0.0398,-0.0407,-0.04
189.8,0.893,-0.0403,-0.0401,-0.0402
189.9,0.893,-0.0404,-0.0405,-0.0398
190,0.893,-0.0405,-0.0408,-0.0404
190.1,0.894,-0.0401,-0.0402,-0.0405
190.2,0.894,-0.0396,-0.0402,-0.0401
190.3,0.894,-0.0399,-0.0406,-0.04
190.4,0.893,-0.0401,-0.0405,-0.0404
190.5,0.874,-0.0394,-0.0389,-0.0394
190.6,0.84,-0.0377,-0.0377,-0.0375
190.7,0.82,-0.0367,-0.0368,-0.0367
190.8,0.808,-0.0361,-0.0365,-0.0364
190.9,0.804,-0.0361,-0.0361,-0.0356
191,0.802,-0.0361,-0.0362,-0.0357
191.1,0.8,-0.0361,-0.0359,-0.0354
191.2,0.799,-0.0362,-0.0361,-0.0361
191.3,0.797,-0.0363,-0.0359,-0.0361
191.4,0.795,-0.0364,-0.0359,-0.036
191.5,0.794,-0.0364,-0.0356,-0.0361
191.6,0.794,-0.0368,-0.0357,-0.0361
191.7,0.794,-0.0365,-0.036,-0.036
191.8,0.794,-0.0362,-0.0357,-0.0361
191.9,0.794,-0.0364,-0.0356,-0.0364
192,0.794,-0.0358,-0.0354,-0.0367
192.1,0.794,-0.0359,-0.0355,-0.0363
192.2,0.794,-0.036,-0.0357,-0.036
192.3,0.795,-0.0358,-0.0356,-0.0359
192.4,0.788,-0.0358,-0.0353,-0.0359
192.5,0.751,-0.0343,-0.0335,-0.0344
192.6,0.726,-0.0331,-0.0328,-0.0335
192.7,0.711,-0.0326,-0.032,-0.0323
192.8,0.704,-0.0323,-0.0319,-0.0317
192.9,0.702,-0.0319,-0.0321,-0.0317
193,0.7,-0.0318,-0.0316,-0.032
193.1,0.699,-0.0317,-0.0319,-0.0318
193.2,0.699,-0.0313,-0.0318,-0.0324
193.3,0.698,-0.0315,-0.032,-0.0319
193.4,0.697,-0.0314,-0.0316,-0.0318
193.5,0.697,-0.031,-0.0318,-0.0319
193.6,0.698,-0.0312,-0.0312,-0.0318
193.7,0.698,-0.0316,-0.0316,-0.0317
193.8,0.698,-0.0314,-0.0319,-0.0315
193.9,0.699,-0.0314,-0.0314,-0.0316
194,0.699,-0.0315,-0.0311,-0.032
194.1,0.699,-0.0316,-0.0314,-0.0318
194.2,0.699,-0.0314,-0.0318,-0.0318
194.3,0.698,-0.0316,-0.0318,-0.0314
194.4,0.693,-0.0316,-0.032,-0.0315
194.5,0.654,-0.0296,-0.0303,-0.0299
194.6,0.627,-0.0284,-0.0285,-0.0281
194.7,0.613,-0.0276,-0.0281,-0.0279
194.8,0.606,-0.0275,-0.0274,-0.0279
194.9,0.602,-0.0273,-0.0274,-0.0268
195,0.6,-0.0272,-0.0274,-0.0269
195.1,0.599,-0.0276,-0.0272,-0.0271
195.2,0.599,-0.0274,-0.0272,-0.0265
195.3,0.599,-0.0278,-0.0275,-0.0265
195.4,0.599,-0.0274,-0.0274,-0.0268
195.5,0.599,-0.0273,-0.0277,-0.0268
195.6,0.599,-0.0269,-0.0277,-0.0266
195.7,0.599,-0.0271,-0.0276,-0.0272
195.8,0.599,-0.0268,-0.0275,-0.0267
195.9,0.599,-0.0269,-0.0274,-0.027
196,0.599,-0.0271,-0.0275,-0.0273
196.1,0.598,-0.0272,-0.0274,-0.0272
196.2,0.599,-0.0268,-0.0273,-0.0276
196.3,0.597,-0.0269,-0.027,-0.0276
196.4,0.566,-0.0252,-0.0259,-0.0263
196.5,0.528,-0.0239,-0.0244,-0.0244
196.6,0.51,-0.0229,-0.024,-0.024
196.7,0.502,-0.0231,-0.024,-0.0232
196.8,0.497,-0.023,-0.0237,-0.0227
196.9,0.494,-0.0228,-0.0235,-0.0223
197,0.494,-0.0226,-0.0234,-0.0224
197.1,0.494,-0.0226,-0.0232,-0.0219
197.2,0.494,-0.0226,-0.0236,-0.0222
197.3,0.493,-0.0226,-0.0235,-0.0223
197.4,0.494,-0.0222,-0.0234,-0.0225
197.5,0.493,-0.0223,-0.0233,-0.0223
197.6,0.493,-0.0222,-0.0229,-0.0222
197.7,0.493,-0.0221,-0.0231,-0.0221
197.8,0.493,-0.022,-0.0234,-0.0224
197.9,0.493,-0.0223,-0.0232,-0.0224
198,0.492,-0.022,-0.0229,-0.0223
198.1,0.492,-0.0223,-0.0229,-0.0224
198.2,0.492,-0.0225,-0.0227,-0.0224
198.3,0.481,-0.0219,-0.0216,-0.0221
198.4,0.442,-0.0196,-0.0201,-0.0202
198.5,0.421,-0.0189,-0.0194,-0.0193
198.6,0.407,-0.0184,-0.0191,-0.018
198.7,0.403,-0.0178,-0.0189,-0.0178
198.8,0.399,-0.0183,-0.0188,-0.0178
198.9,0.398,-0.0183,-0.019,-0.0172
199,0.397,-0.0177,-0.019,-0.0172
199.1,0.395,-0.0182,-0.0183,-0.0177
199.2,0.394,-0.0181,-0.0181,-0.0177
199.3,0.393,-0.0183,-0.018,-0.0172
199.4,0.395,-0.0181,-0.018,-0.0177
199.5,0.396,-0.0177,-0.0181,-0.0174
199.6,0.395,-0.0177,-0.0186,-0.0173
199.7,0.394,-0.0176,-0.0186,-0.0173
199.8,0.393,-0.0174,-0.0188,-0.0177
199.9,0.393,-0.0179,-0.0186,-0.0174
200,0.393,-0.0177,-0.0179,-0.0171
200.1,0.393,-0.0178,-0.0178,-0.0174
200.2,0.393,-0.0179,-0.018,-0.017
200.3,0.391,-0.0176,-0.018,-0.017
200.4,0.391,-0.0175,-0.0182,-0.0173
200.5,0.358,-0.0161,-0.0165,-0.0158
200.6,0.33,-0.0149,-0.0153,-0.0144
200.7,0.313,-0.014,-0.0145,-0.0145
200.8,0.303,-0.0144,-0.0143,-0.0147
200.9,0.3,-0.0142,-0.0143,-0.0137
201,0.299,-0.014,-0.0144,-0.0137
201.1,0.297,-0.0135,-0.014,-0.0141
201.2,0.297,-0.0136,-0.014,-0.0138
201.3,0.296,-0.0134,-0.0141,-0.0137
201.4,0.295,-0.0135,-0.0136,-0.0137
201.5,0.294,-0.0134,-0.0129,-0.0139
201.6,0.296,-0.0137,-0.0129,-0.0136
201.7,0.295,-0.0136,-0.0127,-0.0135
201.8,0.296,-0.0142,-0.0131,-0.0136
201.9,0.295,-0.0139,-0.0134,-0.0138
202,0.295,-0.0136,-0.0134,-0.0136
202.1,0.296,-0.0138,-0.0126,-0.0136
202.2,0.294,-0.014,-0.0127,-0.0138
202.3,0.295,-0.0134,-0.0131,-0.0138
202.4,0.296,-0.0138,-0.0132,-0.0135
202.5,0.279,-0.0135,-0.0127,-0.0131
202.6,0.242,-0.0115,-0.0109,-0.0118
202.7,0.22,-0.0104,-0.0097,-0.0106
202.8,0.21,-0.0094,-0.009,-0.0099
202.9,0.203,-0.0096,-0.0089,-0.0096
203,0.201,-0.009,-0.0089,-0.0103
203.1,0.2,-0.0092,-0.0086,-0.0098
203.2,0.2,-0.0096,-0.0088,-0.0094
203.3,0.2,-0.0094,-0.0087,-0.0098
203.4,0.199,-0.0093,-0.0088,-0.0096
203.5,0.199,-0.0094,-0.0083,-0.0094
203.6,0.198,-0.0094,-0.0084,-0.0097
203.7,0.199,-0.0092,-0.0086,-0.0098
203.8,0.198,-0.0089,-0.009,-0.0096
203.9,0.197,-0.009,-0.0084,-0.0096
204,0.197,-0.0093,-0.0083,-0.0094
204.1,0.198,-0.0094,-0.0088,-0.0094
204.2,0.196,-0.0095,-0.0086,-0.0092
204.3,0.196,-0.0096,-0.0081,-0.0097
204.4,0.178,-0.0085,-0.0079,-0.0083
204.5,0.143,-0.007,-0.0063,-0.0072
204.6,0.121,-0.0061,-0.0054,-0.006
204.7,0.113,-0.0056,-0.0049,-0.006
204.8,0.107,-0.0054,-0.0043,-0.0055
204.9,0.105,-0.0049,-0.0041,-0.0055
205,0.104,-0.0047,-0.0038,-0.0051
205.1,0.103,-0.0047,-0.0039,-0.005
205.2,0.102,-0.0051,-0.0042,-0.0056
205.3,0.101,-0.005,-0.0041,-0.0053
205.4,0.101,-0.0048,-0.0037,-0.0051
205.5,0.101,-0.0046,-0.0039,-0.0054
205.6,0.101,-0.0051,-0.0039,-0.0053
205.7,0.1,-0.005,-0.0039,-0.0054
205.8,0.1,-0.005,-0.0041,-0.0054
205.9,0.099,-0.0049,-0.0041,-0.0048
206,0.1,-0.005,-0.0045,-0.0049
206.1,0.101,-0.0052,-0.0042,-0.0054
206.2,0.101,-0.0052,-0.0045,-0.0055
206.3,0.101,-0.0052,-0.0046,-0.0053
206.4,0.101,-0.0056,-0.0043,-0.0052
206.5,0.096,-0.0049,-0.0039,-0.0051
206.6,0.06,-0.0032,-0.0024,-0.003
206.7,0.034,-0.0022,-0.0015,-0.0018
206.8,0.022,-0.001,-0.0008,-0.0015
206.9,0.013,-0.0006,-0.0008,-0.0013
207,0.011,-0.0006,-0.0002,-0.0012
207.1,0.01,-0.0011,-0.0003,-0.0009
207.2,0.008,-0.0009,-0.0001,-0.0003
207.3,0.007,-0.001,0,-0.0006
207.4,0.005,-0.0013,0,-0.0003
207.5,0.005,-0.0012,0.0001,-0.0006
207.6,0.007,-0.0008,-0.0001,-0.0008
207.7,0.006,-0.0006,0.0003,-0.0009
207.8,0.006,-0.0006,-0.0001,-0.0002
207.9,0.005,-0.0009,0,-0.0007
208,0.005,-0.0004,0.0003,-0.0001
208.1,0.007,-0.0004,0.0002,-0.0002
208.2,0.006,-0.0006,0.0002,-0.0006
208.3,0.007,-0.0004,0.0001,-0.0009
208.4,0.006,-0.0006,0.0004,-0.0012
208.5,0.007,-0.0009,0.0001,-0.0011
208.6,0.004,-0.0009,-0.0001,-0.0006
208.7,0,-0.0009,-0.0001,-0.0004
208.8,-0.002,-0.0003,0.0004,0
208.9,-0.004,-0.0004,0.0002,0.0003
209,-0.004,-0.0004,0,0.0006
209.1,-0.005,-0.0002,-0.0001,0.0002
209.2,-0.005,-0.0006,0.0005,0.0005
209.3,-0.005,-0.0001,0.0006,-0.0001
209.4,-0.005,-0.0007,0.0001,-0.0012
209.5,-0.004,-0.0004,-0.0002,-0.0007
209.6,-0.004,-0.0003,0,-0.0003
209.7,-0.005,0,0.0004,-0.0007
209.8,-0.004,0.0001,0.0003,-0.0009
209.9,-0.005,-0.0002,-0.0001,-0.0007
210,-0.004,0.0003,0.0001,-0.0009
210.1,-0.005,0.0001,0.0003,-0.0009
210.2,-0.004,0,0.0005,-0.0009
210.3,-0.004,-0.0003,0.0003,-0.0009
210.4,-0.004,-0.0003,-0.0001,-0.0006
210.5,-0.004,0,0,-0.0003
210.6,-0.004,-0.0005,0,-0.001
210.7,-0.004,0,-0.0001,-0.0006
210.8,-0.005,0.0002,0,-0.0002
210.9,-0.004,0.0001,0.0005,0.0001
211,-0.005,0,0.0004,0
211.1,-0.005,0,0.0004,-0.0002
211.2,-0.006,-0.0002,0.0007,0.0002
211.3,-0.005,0,0.0003,0.0004
211.4,-0.005,0.0001,0.0006,0.0007
211.5,-0.006,-0.0001,0.0002,0.0001
211.6,-0.005,-0.0005,0.0001,-0.0002
211.7,-0.005,-0.0007,0.0006,0.0001
211.8,-0.005,-0.0007,0.0007,0.0003
211.9,-0.005,-0.0007,0.0009,0.0006
212,-0.005,-0.0012,0.0009,0.0002
212.1,-0.005,-0.0005,0.0006,0
212.2,-0.005,-0.0005,0.0003,-0.0004
212.3,-0.005,-0.0007,0.0003,-0.0009
212.4,-0.005,-0.0006,0.0003,-0.001
212.5,-0.005,-0.0006,0.0002,-0.0007
212.6,-0.005,-0.0003,0.0001,0.0002
212.7,-0.005,-0.0003,0.0005,0.0005
